bl,,fitcbsa alone,,fbsaalone2,,fbsaalone3,,ph5 1,,ph5 2,,pH 5 3,,pH 6 1,,pH 6 2,,pH 6 3,,pH 7 1,,pH 7 2,,pH 7 3,,pH 8 1,,pH 8 2,,pH 8 3,,pH 9 1,,pH 9 2,,pH 9 3,,pH 10 1,,pH 10 2,,pH 10 3,,pH 11 1,,pH 11 2,,pH 11 3,,
Wavelength (nm),Intensity (a.u.),Wavelength (nm),Intensity (a.u.),Wavelength (nm),Intensity (a.u.),Wavelength (nm),Intensity (a.u.),Wavelength (nm),Intensity (a.u.),Wavelength (nm),Intensity (a.u.),Wavelength (nm),Intensity (a.u.),Wavelength (nm),Intensity (a.u.),Wavelength (nm),Intensity (a.u.),Wavelength (nm),Intensity (a.u.),Wavelength (nm),Intensity (a.u.),Wavelength (nm),Intensity (a.u.),Wavelength (nm),Intensity (a.u.),Wavelength (nm),Intensity (a.u.),Wavelength (nm),Intensity (a.u.),Wavelength (nm),Intensity (a.u.),Wavelength (nm),Intensity (a.u.),Wavelength (nm),Intensity (a.u.),Wavelength (nm),Intensity (a.u.),Wavelength (nm),Intensity (a.u.),Wavelength (nm),Intensity (a.u.),Wavelength (nm),Intensity (a.u.),Wavelength (nm),Intensity (a.u.),Wavelength (nm),Intensity (a.u.),Wavelength (nm),Intensity (a.u.),
500,-0.09320521355,500,44.86642838,500,44.20000458,500,44.08943939,500,22.89346123,500,62.90029526,500,20.94595718,500,6.500190735,500,8.402993202,500,7.672335625,500,11.16360474,500,8.346938133,500,7.966990471,500,7.912566185,500,9.815135956,500,14.25599766,500,23.10251236,500,19.78998566,500,33.80940628,500,110.1237183,500,143.2434235,500,133.7398376,500,176.1008148,500,177.6056824,500,167.0787964,
501.0400085,-1.309013486,501.0400085,49.43315125,501.0400085,48.90981674,501.0400085,48.05367661,501.0400085,9.836981773,501.0400085,28.44482803,501.0400085,9.723993301,501.0400085,3.913029432,501.0400085,7.643756866,501.0400085,6.566770554,501.0400085,11.00856018,501.0400085,6.850197792,501.0400085,7.195857048,501.0400085,7.387885094,501.0400085,9.817518234,501.0400085,13.43537235,501.0400085,24.15306091,501.0400085,16.59654045,501.0400085,36.67871475,501.0400085,122.1557007,501.0400085,162.1564178,501.0400085,150.2622833,501.0400085,196.1195221,501.0400085,203.0358734,501.0400085,186.8896027,e
501.9400024,-1.918347597,501.9400024,54.63418579,501.9400024,54.30496597,501.9400024,54.23474884,501.9400024,3.033725977,501.9400024,9.566653252,501.9400024,3.655146837,501.9400024,3.053846598,501.9400024,7.43072319,501.9400024,6.376974106,501.9400024,11.64310074,501.9400024,6.467102051,501.9400024,7.288319588,501.9400024,7.720572472,501.9400024,10.48005867,501.9400024,13.93530178,501.9400024,26.42608833,501.9400024,15.65317631,501.9400024,41.42193222,501.9400024,139.9427338,501.9400024,180.7032166,501.9400024,169.989563,501.9400024,221.9219818,501.9400024,227.4539948,501.9400024,212.5849762,
502.980011,-2.268713236,502.980011,60.96419525,502.980011,61.00420761,502.980011,59.75824738,502.980011,0.500320673,502.980011,2.221685648,502.980011,1.4717381,502.980011,2.844691038,502.980011,7.591997147,502.980011,6.687749863,502.980011,12.8115015,502.980011,6.775728226,502.980011,7.598739624,502.980011,8.311676025,502.980011,11.45518303,502.980011,14.64827442,502.980011,28.70836067,502.980011,16.14350319,502.980011,46.19333649,502.980011,156.459259,502.980011,204.6112213,502.980011,194.0296631,502.980011,250.9573059,502.980011,258.3528137,502.980011,239.9600983,
504.019989,-2.277467251,504.019989,69.15989685,504.019989,66.73640442,504.019989,66.919487,504.019989,-0.1183271408,504.019989,0.4132421017,504.019989,1.179261684,504.019989,3.234654188,504.019989,8.432370186,504.019989,7.228133202,504.019989,14.25620365,504.019989,7.469444275,504.019989,8.324807167,504.019989,9.220438004,504.019989,12.38385773,504.019989,16.39818573,504.019989,32.3042984,504.019989,17.13132286,504.019989,51.40278244,504.019989,177.1022644,504.019989,231.8045044,504.019989,216.4979095,504.019989,282.3138733,504.019989,291.59375,504.019989,265.0499268,
505.0700073,-2.340047121,505.0700073,75.70576477,505.0700073,74.15272522,505.0700073,73.45078278,505.0700073,0.1518599987,505.0700073,0.3440363407,505.0700073,1.11066103,505.0700073,3.244575739,505.0700073,8.734204292,505.0700073,7.985541344,505.0700073,15.45031452,505.0700073,7.820487976,505.0700073,9.554677963,505.0700073,10.19228649,505.0700073,13.41611767,505.0700073,17.50355721,505.0700073,35.16308975,505.0700073,18.61211205,505.0700073,55.44607162,505.0700073,197.0158691,505.0700073,256.1510315,505.0700073,243.389328,505.0700073,317.2547607,505.0700073,323.7844543,505.0700073,297.341156,
505.9700012,-2.312357664,505.9700012,80.36243439,505.9700012,79.66020203,505.9700012,79.036026,505.9700012,0.01650977135,505.9700012,0.391628027,505.9700012,1.364302158,505.9700012,3.821264982,505.9700012,9.515381813,505.9700012,8.954555511,505.9700012,16.52783775,505.9700012,8.690407753,505.9700012,9.677695274,505.9700012,10.90901756,505.9700012,14.28618145,505.9700012,18.97566032,505.9700012,38.04969406,505.9700012,20.10030365,505.9700012,60.50671005,505.9700012,214.0777893,505.9700012,278.303772,505.9700012,261.7002869,505.9700012,342.3414917,505.9700012,353.1318054,505.9700012,323.5101013,
507.0100098,-2.33963871,507.0100098,88.40940857,507.0100098,87.54792786,507.0100098,87.48014832,507.0100098,0.1575739384,507.0100098,0.4038565159,507.0100098,1.593138456,507.0100098,4.356561661,507.0100098,10.60385418,507.0100098,9.386442184,507.0100098,18.25824928,507.0100098,9.302331924,507.0100098,10.85983849,507.0100098,11.62491131,507.0100098,15.35066891,507.0100098,21.10702705,507.0100098,41.064888,507.0100098,21.77656555,507.0100098,66.8693924,507.0100098,236.5245056,507.0100098,309.5476379,507.0100098,293.1971741,507.0100098,378.2868652,507.0100098,392.675354,507.0100098,352.7420044,
508.0499878,-2.330410004,508.0499878,95.07129669,508.0499878,94.05218506,508.0499878,94.45371246,508.0499878,0.464597702,508.0499878,0.4672629833,508.0499878,1.952889204,508.0499878,4.715871811,508.0499878,11.05494595,508.0499878,10.19016075,508.0499878,19.73581505,508.0499878,9.854828835,508.0499878,11.22232246,508.0499878,12.38099384,508.0499878,16.52031708,508.0499878,21.82895851,508.0499878,43.87284088,508.0499878,24.06931496,508.0499878,70.64109802,508.0499878,254.325119,508.0499878,336.1147461,508.0499878,316.572876,508.0499878,412.7853088,508.0499878,423.7615662,508.0499878,383.7271118,
508.9500122,-2.367185831,508.9500122,100.8175583,508.9500122,99.85221863,508.9500122,99.25270081,508.9500122,0.5443341732,508.9500122,0.712993145,508.9500122,2.001552343,508.9500122,4.950572014,508.9500122,11.64064884,508.9500122,10.53356171,508.9500122,19.97909355,508.9500122,10.51172733,508.9500122,12.01951885,508.9500122,13.33833408,508.9500122,17.27509689,508.9500122,22.4506855,508.9500122,46.66071701,508.9500122,25.03556824,508.9500122,75.64913177,508.9500122,272.9570007,508.9500122,357.6833496,508.9500122,343.1911011,508.9500122,446.7539978,508.9500122,450.0207825,508.9500122,413.6882935,
510,-2.330330849,510,106.0846786,510,105.699379,510,104.0730438,510,0.610011816,510,0.9260818958,510,1.999008417,510,5.219172478,510,11.89024925,510,10.91687584,510,21.31951141,510,10.98575687,510,12.49683094,510,14.35555172,510,18.19446373,510,24.11658478,510,49.1442337,510,26.65420341,510,79.17132568,510,289.6610413,510,382.8969727,510,366.4448853,510,473.0670471,510,485.3057556,510,439.2425842,
511.0599976,-2.36684823,511.0599976,111.9576263,511.0599976,110.1770096,511.0599976,113.2277069,511.0599976,0.7220270634,511.0599976,0.8158142567,511.0599976,2.347049475,511.0599976,5.417126656,511.0599976,12.46109581,511.0599976,11.00335503,511.0599976,22.49325371,511.0599976,11.09288216,511.0599976,12.74123669,511.0599976,14.14787388,511.0599976,19.06289291,511.0599976,24.56511879,511.0599976,51.21897125,511.0599976,27.62726784,511.0599976,82.22534943,511.0599976,305.9829712,511.0599976,404.1188965,511.0599976,384.3509216,511.0599976,491.2060547,511.0599976,500.0941467,511.0599976,460.771637,
511.9599915,-2.329234362,511.9599915,117.6522293,511.9599915,114.6990814,511.9599915,115.3031464,511.9599915,0.8942079544,511.9599915,0.8293898106,511.9599915,2.466293097,511.9599915,5.427797318,511.9599915,13.12964916,511.9599915,11.93986797,511.9599915,22.80451393,511.9599915,11.66407013,511.9599915,13.21047592,511.9599915,14.83751965,511.9599915,19.26509857,511.9599915,24.94749641,511.9599915,52.36605453,511.9599915,28.49056816,511.9599915,86.89569855,511.9599915,319.4190979,511.9599915,420.6457214,511.9599915,402.7932434,511.9599915,520.8352661,511.9599915,510.6296387,511.9599915,491.8920898,
513.0300293,-2.339316845,513.0300293,123.422493,513.0300293,118.6895905,513.0300293,120.5579147,513.0300293,0.9934167862,513.0300293,0.7409069538,513.0300293,2.495420694,513.0300293,5.696907043,513.0300293,13.64555264,513.0300293,12.208251,513.0300293,23.66143799,513.0300293,12.09480572,513.0300293,13.59859371,513.0300293,14.91692638,513.0300293,20.20592308,513.0300293,26.6360569,513.0300293,56.01444626,513.0300293,29.37462997,513.0300293,89.73961639,513.0300293,328.3450928,513.0300293,445.8016968,513.0300293,416.5435181,513.0300293,539.6290283,513.0300293,563.1177979,513.0300293,516.3370361,
513.9299927,-2.422850132,513.9299927,127.1149139,513.9299927,123.7436981,513.9299927,122.3484802,513.9299927,0.874112606,513.9299927,0.9994215965,513.9299927,2.622643232,513.9299927,5.689723015,513.9299927,13.53731346,513.9299927,12.37987423,513.9299927,24.27851105,513.9299927,12.45582867,513.9299927,13.91963673,513.9299927,15.88233471,513.9299927,20.29487801,513.9299927,26.58317947,513.9299927,57.43546677,513.9299927,29.59474945,513.9299927,93.84389496,513.9299927,346.6748047,513.9299927,471.789093,513.9299927,438.0298157,513.9299927,568.7906494,513.9299927,581.6968994,513.9299927,533.0602417,
515,-2.339492321,515,128.4679871,515,126.6627197,515,125.535614,515,0.8078608513,515,0.8700833321,515,2.672539949,515,5.965338707,515,13.45842838,515,12.43673897,515,24.06741714,515,12.47702599,515,13.91623974,515,15.63397121,515,20.47942734,515,26.60939598,515,58.10653305,515,30.69589996,515,93.37026215,515,358.3481445,515,479.0296936,515,445.5903625,515,580.5787354,515,599.4528198,515,550.6952515,
516.0599976,-2.311965227,516.0599976,131.5935974,516.0599976,128.1877289,516.0599976,126.7889252,516.0599976,1.125495434,516.0599976,1.059538364,516.0599976,2.657613993,516.0599976,6.079369545,516.0599976,13.93827152,516.0599976,12.36033249,516.0599976,24.27544022,516.0599976,12.64380646,516.0599976,14.32791805,516.0599976,15.81033993,516.0599976,21.29361534,516.0599976,27.58042145,516.0599976,59.66087341,516.0599976,30.77491379,516.0599976,95.13946533,516.0599976,365.2242126,516.0599976,485.7401428,516.0599976,455.5747986,516.0599976,594.5678711,516.0599976,611.8036499,516.0599976,558.8374023,
516.960022,-2.367070675,516.960022,132.5636292,516.960022,132.0801544,516.960022,129.3549652,516.960022,0.987842083,516.960022,1.099569321,516.960022,2.679629564,516.960022,6.256619453,516.960022,14.22272968,516.960022,12.77609921,516.960022,25.39723206,516.960022,12.73219299,516.960022,14.44637775,516.960022,15.92918682,516.960022,20.98451614,516.960022,27.63707161,516.960022,59.04630661,516.960022,30.96459961,516.960022,97.53710175,516.960022,374.8318176,516.960022,503.1678467,516.960022,464.1894226,516.960022,594.126709,516.960022,623.3151245,516.960022,570.8737793,
518.0300293,-2.262561321,518.0300293,133.3643799,518.0300293,131.0851746,518.0300293,131.5458984,518.0300293,1.150032759,518.0300293,0.870759964,518.0300293,2.634164095,518.0300293,5.85871315,518.0300293,13.76618481,518.0300293,12.74117374,518.0300293,25.18725204,518.0300293,12.62578392,518.0300293,14.12488842,518.0300293,15.82720852,518.0300293,21.08749199,518.0300293,27.39951706,518.0300293,60.17555237,518.0300293,31.85531998,518.0300293,97.95705414,518.0300293,378.3464661,518.0300293,503.1688538,518.0300293,479.3882751,518.0300293,603.7186279,518.0300293,627.5466309,518.0300293,579.8386841,
518.9299927,-2.232322931,518.9299927,135.5572052,518.9299927,132.0717316,518.9299927,129.4141235,518.9299927,1.02861762,518.9299927,0.937640667,518.9299927,2.637361765,518.9299927,5.884906769,518.9299927,14.05546474,518.9299927,12.87386227,518.9299927,24.61756516,518.9299927,12.83932114,518.9299927,14.44080257,518.9299927,16.17942429,518.9299927,20.74938774,518.9299927,27.71699905,518.9299927,60.64920807,518.9299927,32.004673,518.9299927,97.98090363,518.9299927,378.803009,518.9299927,505.1260986,518.9299927,476.2806091,518.9299927,619.7398071,518.9299927,634.9770508,518.9299927,577.2913818,
520,-2.291255474,520,132.1361694,520,130.9287415,520,131.9394073,520,0.9499666691,520,1.124551296,520,2.587511778,520,6.098825455,520,13.21950722,520,12.45376587,520,25.18455124,520,12.66514683,520,14.68874264,520,15.84099865,520,20.6985302,520,27.16549873,520,59.76094437,520,31.83320236,520,97.89064026,520,381.8417969,520,513.1749878,520,476.5088196,520,629.2521973,520,637.5834351,520,582.0356445,
521.039978,-2.366816759,521.039978,133.3017273,521.039978,130.5832062,521.039978,130.9264374,521.039978,1.02519846,521.039978,0.8812465668,521.039978,2.615677118,521.039978,6.047673225,521.039978,13.04683018,521.039978,12.30494785,521.039978,24.72001266,521.039978,12.30583858,521.039978,13.97515774,521.039978,15.74304104,521.039978,20.19889832,521.039978,26.75000572,521.039978,59.00646591,521.039978,30.88144302,521.039978,96.80010986,521.039978,380.7351379,521.039978,506.6687927,521.039978,478.0514221,521.039978,622.7037354,521.039978,622.3480835,521.039978,593.6714478,
521.9400024,-2.319678783,521.9400024,131.9911652,521.9400024,129.8480225,521.9400024,130.0746918,521.9400024,0.9749751091,521.9400024,1.008413076,521.9400024,2.663844347,521.9400024,6.278082848,521.9400024,13.67878437,521.9400024,12.47207928,521.9400024,24.44751167,521.9400024,12.19065857,521.9400024,13.77374935,521.9400024,15.41687679,521.9400024,20.7593956,521.9400024,26.99742126,521.9400024,60.36509705,521.9400024,30.65977859,521.9400024,98.09774017,521.9400024,379.9943237,521.9400024,513.6716919,521.9400024,473.9386597,521.9400024,611.8224487,521.9400024,637.6700439,521.9400024,589.2735596,
522.9799805,-2.357726097,522.9799805,130.8452148,522.9799805,125.1227417,522.9799805,128.2980804,522.9799805,1.051587105,522.9799805,1.015650034,522.9799805,2.495726824,522.9799805,5.896913528,522.9799805,13.08743,522.9799805,11.68519783,522.9799805,23.70362473,522.9799805,11.79143715,522.9799805,13.78119564,522.9799805,15.37858105,522.9799805,20.01739311,522.9799805,26.45524025,522.9799805,57.70725632,522.9799805,30.68811417,522.9799805,95.93392944,522.9799805,374.564209,522.9799805,508.155426,522.9799805,461.8830566,522.9799805,617.5715942,522.9799805,634.3984375,522.9799805,577.9530029,
524.0200195,-2.338217974,524.0200195,127.3170166,524.0200195,127.6960449,524.0200195,126.5821381,524.0200195,0.9436299801,524.0200195,0.9643340111,524.0200195,2.09705615,524.0200195,5.645253181,524.0200195,12.72050095,524.0200195,11.37182617,524.0200195,23.50701141,524.0200195,11.67588711,524.0200195,13.25972652,524.0200195,14.85419941,524.0200195,19.13356781,524.0200195,25.82011032,524.0200195,56.27086639,524.0200195,29.72712326,524.0200195,95.63217926,524.0200195,369.2996521,524.0200195,501.2162781,524.0200195,465.2745972,524.0200195,606.7886963,524.0200195,615.1057129,524.0200195,576.4528809,
525.0700073,-2.3479743,525.0700073,126.0265656,525.0700073,124.580864,525.0700073,122.540062,525.0700073,0.9825155735,525.0700073,0.7907381058,525.0700073,2.309625864,525.0700073,5.556998253,525.0700073,12.44899178,525.0700073,11.36909199,525.0700073,22.7783432,525.0700073,11.2245779,525.0700073,13.17346764,525.0700073,14.20474911,525.0700073,18.7550602,525.0700073,25.56295586,525.0700073,55.89718628,525.0700073,29.68914795,525.0700073,91.58107758,525.0700073,360.1731873,525.0700073,493.9238281,525.0700073,454.6486816,525.0700073,586.9550171,525.0700073,606.2099609,525.0700073,558.9031982,
525.9699707,-2.31980443,525.9699707,124.5678101,525.9699707,121.2661591,525.9699707,118.8276443,525.9699707,0.9122829437,525.9699707,0.9212331772,525.9699707,2.151391268,525.9699707,5.512033463,525.9699707,12.12050629,525.9699707,10.87489319,525.9699707,21.45553589,525.9699707,10.72783375,525.9699707,12.36268806,525.9699707,14.35312748,525.9699707,18.28386497,525.9699707,24.8589859,525.9699707,54.08541107,525.9699707,29.05416107,525.9699707,89.91825867,525.9699707,352.1607666,525.9699707,477.8234863,525.9699707,440.0915222,525.9699707,580.3577881,525.9699707,601.2277222,525.9699707,544.4421997,
527.0100098,-2.320219278,527.0100098,120.469841,527.0100098,119.0158844,527.0100098,118.0058365,527.0100098,0.8034980297,527.0100098,0.8432927132,527.0100098,2.088652849,527.0100098,4.950271606,527.0100098,11.96992016,527.0100098,10.69815922,527.0100098,21.48739052,527.0100098,10.83353615,527.0100098,11.70704174,527.0100098,13.73871326,527.0100098,18.13075447,527.0100098,23.03982544,527.0100098,52.37746811,527.0100098,27.96961975,527.0100098,88.86486816,527.0100098,347.9859314,527.0100098,479.077301,527.0100098,437.0199585,527.0100098,562.3765259,527.0100098,580.9421387,527.0100098,529.9381714,
528.0499878,-2.338806152,528.0499878,115.5168381,528.0499878,115.6121521,528.0499878,114.0366745,528.0499878,0.5092971325,528.0499878,0.7079350948,528.0499878,2.076438665,528.0499878,4.889443398,528.0499878,11.27828026,528.0499878,10.24483204,528.0499878,20.57813835,528.0499878,10.32549286,528.0499878,11.60890007,528.0499878,13.50300694,528.0499878,17.25739861,528.0499878,23.18839073,528.0499878,51.91038132,528.0499878,26.64088821,528.0499878,86.09617615,528.0499878,337.3329773,528.0499878,456.4478149,528.0499878,417.4732971,528.0499878,545.6535034,528.0499878,564.8656616,528.0499878,517.1775513,
528.9500122,-2.309377193,528.9500122,112.2632675,528.9500122,111.5599976,528.9500122,112.3650665,528.9500122,0.6518113613,528.9500122,0.6365385056,528.9500122,2.126565695,528.9500122,5.001742363,528.9500122,11.11144638,528.9500122,9.966079712,528.9500122,19.80228806,528.9500122,9.858764648,528.9500122,11.31411266,528.9500122,13.08031368,528.9500122,17.15867043,528.9500122,22.86674118,528.9500122,49.52199173,528.9500122,25.65319443,528.9500122,82.95317078,528.9500122,330.5205994,528.9500122,448.1386414,528.9500122,411.4935608,528.9500122,534.7419434,528.9500122,552.5269165,528.9500122,516.0820313,
530,-2.301346779,530,110.3404312,530,107.2663803,530,107.0413437,530,0.781555891,530,0.5795896053,530,1.925532103,530,4.777972221,530,10.32565403,530,9.972848892,530,19.31893158,530,9.780683517,530,11.07320595,530,12.39672852,530,16.64176941,530,21.86212349,530,48.71091461,530,24.7514019,530,80.50027466,530,316.8757935,530,429.3000488,530,394.2712708,530,517.5422974,530,531.0667114,530,496.8558044,
531.039978,-2.357539177,531.039978,106.1590195,531.039978,104.7415543,531.039978,103.5084305,531.039978,0.5395030975,531.039978,0.4940133095,531.039978,1.562955141,531.039978,4.368260384,531.039978,10.42647457,531.039978,9.27458477,531.039978,18.91579628,531.039978,9.399823189,531.039978,10.3166399,531.039978,11.96708965,531.039978,15.59700108,531.039978,20.90042496,531.039978,47.06504822,531.039978,24.35345078,531.039978,77.38918304,531.039978,304.7925415,531.039978,421.175415,531.039978,384.0810852,531.039978,490.3515015,531.039978,514.6184082,531.039978,475.5273132,
531.9400024,-2.329154968,531.9400024,101.8804245,531.9400024,98.25770569,531.9400024,99.32803345,531.9400024,0.4609050751,531.9400024,0.4578912258,531.9400024,1.833670378,531.9400024,4.331376076,531.9400024,10.02303123,531.9400024,9.183979034,531.9400024,18.45059395,531.9400024,9.211884499,531.9400024,10.33398533,531.9400024,11.77657223,531.9400024,15.19056797,531.9400024,19.93805504,531.9400024,44.9793129,531.9400024,23.52985573,531.9400024,74.7973175,531.9400024,295.5552673,531.9400024,410.0243835,531.9400024,377.5860596,531.9400024,478.3948364,531.9400024,503.8075867,531.9400024,458.0613708,
532.9799805,-2.35773325,532.9799805,96.71476746,532.9799805,96.66096497,532.9799805,94.18531799,532.9799805,0.3265891075,532.9799805,0.3399596214,532.9799805,1.407735586,532.9799805,4.256464005,532.9799805,9.308568001,532.9799805,8.434314728,532.9799805,17.59704971,532.9799805,8.861671448,532.9799805,9.688103676,532.9799805,10.77385139,532.9799805,14.79371738,532.9799805,19.77125168,532.9799805,43.11364365,532.9799805,22.2814045,532.9799805,72.04933929,532.9799805,282.6112061,532.9799805,391.634613,532.9799805,362.5386353,532.9799805,469.5954285,532.9799805,487.3836975,532.9799805,440.9560242,
534.0200195,-2.404735804,534.0200195,93.5502243,534.0200195,93.21025848,534.0200195,90.44152069,534.0200195,0.3535900116,534.0200195,0.4525556564,534.0200195,1.303024054,534.0200195,3.758695841,534.0200195,9.226670265,534.0200195,8.474503517,534.0200195,16.88664436,534.0200195,8.157077789,534.0200195,9.099226952,534.0200195,11.06974983,534.0200195,13.75477695,534.0200195,18.87586784,534.0200195,41.81480789,534.0200195,21.88718796,534.0200195,70.08133698,534.0200195,276.6989136,534.0200195,376.546051,534.0200195,347.4224854,534.0200195,454.5082092,534.0200195,465.8815002,534.0200195,425.351593,
535.0700073,-2.338377476,535.0700073,90.25600433,535.0700073,89.80776978,535.0700073,89.91568756,535.0700073,0.3193027973,535.0700073,0.2906992435,535.0700073,1.289926291,535.0700073,3.76544404,535.0700073,9.08594799,535.0700073,8.311472893,535.0700073,15.90514469,535.0700073,8.061847687,535.0700073,8.927783966,535.0700073,10.37172127,535.0700073,13.75760746,535.0700073,17.85584831,535.0700073,40.18194199,535.0700073,20.991436,535.0700073,67.7904892,535.0700073,262.3745728,535.0700073,364.6062927,535.0700073,333.516571,535.0700073,436.5496826,535.0700073,447.2498779,535.0700073,409.3850098,
535.9699707,-2.404470205,535.9699707,87.43089294,535.9699707,87.94460297,535.9699707,86.14585114,535.9699707,0.3307008743,535.9699707,0.17730546,535.9699707,1.377718687,535.9699707,3.59479928,535.9699707,8.572684288,535.9699707,8.046904564,535.9699707,15.63011265,535.9699707,7.732069016,535.9699707,8.312671661,535.9699707,9.987928391,535.9699707,13.27426624,535.9699707,17.72854424,535.9699707,38.8985405,535.9699707,19.97268677,535.9699707,63.68140793,535.9699707,253.1042938,535.9699707,350.9723511,535.9699707,324.3262024,535.9699707,415.5370789,535.9699707,430.5332031,535.9699707,397.2149048,
537.0100098,-2.320153952,537.0100098,83.44927216,537.0100098,83.50908661,537.0100098,81.86547852,537.0100098,0.3135559559,537.0100098,0.1992743015,537.0100098,1.137660027,537.0100098,3.470831633,537.0100098,8.139091492,537.0100098,7.470882416,537.0100098,15.05188274,537.0100098,7.286036491,537.0100098,8.051952362,537.0100098,9.611066818,537.0100098,12.21809101,537.0100098,17.03980446,537.0100098,37.15111542,537.0100098,19.18561172,537.0100098,59.83095932,537.0100098,241.2948151,537.0100098,339.6794739,537.0100098,311.0926514,537.0100098,402.7244568,537.0100098,408.1622925,537.0100098,373.9808655,
538.0499878,-2.310330868,538.0499878,81.08586121,538.0499878,80.05703735,538.0499878,79.12702179,538.0499878,0.1675233841,538.0499878,0.2280414104,538.0499878,1.098392963,538.0499878,3.311858416,538.0499878,7.979619026,538.0499878,7.180198669,538.0499878,14.23290157,538.0499878,7.006999016,538.0499878,8.183467865,538.0499878,8.888982773,538.0499878,11.91283798,538.0499878,15.95934582,538.0499878,36.48174667,538.0499878,18.4771843,538.0499878,60.19002914,538.0499878,229.3594055,538.0499878,320.0885315,538.0499878,288.8203735,538.0499878,376.8226929,538.0499878,393.6936646,538.0499878,361.7507935,
538.9500122,-2.348389387,538.9500122,78.47690582,538.9500122,76.95584106,538.9500122,76.55014038,538.9500122,0.2092154026,538.9500122,0.05866551399,538.9500122,1.051049948,538.9500122,3.235984087,538.9500122,7.75947094,538.9500122,6.870510101,538.9500122,13.97955608,538.9500122,6.778855324,538.9500122,7.490824699,538.9500122,8.548757553,538.9500122,11.84569168,538.9500122,15.59244823,538.9500122,34.93170547,538.9500122,17.845438,538.9500122,57.18863297,538.9500122,225.4407501,538.9500122,309.421051,538.9500122,288.6052856,538.9500122,370.8226624,538.9500122,381.2025757,538.9500122,354.9910583,
540,-2.366845131,540,75.55145264,540,74.40341187,540,73.60321045,540,0.1915841103,540,-0.001140117645,540,1.115468502,540,3.09662652,540,7.678843498,540,6.742036819,540,13.44847775,540,6.486983299,540,7.530424118,540,8.488843918,540,11.08495045,540,15.370368,540,33.46133041,540,17.02080917,540,55.37707901,540,217.3502655,540,299.5153503,540,267.840332,540,353.356842,540,368.8495483,540,336.0849915,
541.039978,-2.357506037,541.039978,72.53481293,541.039978,70.25228882,541.039978,70.4254303,541.039978,0.07871437073,541.039978,0.01732897758,541.039978,0.8369162083,541.039978,2.8885777,541.039978,7.2948246,541.039978,6.596392632,541.039978,13.58336735,541.039978,6.181609154,541.039978,7.095985413,541.039978,8.069862366,541.039978,10.66191101,541.039978,14.38813877,541.039978,32.75782013,541.039978,16.58524513,541.039978,53.71703339,541.039978,206.8622742,541.039978,288.5162048,541.039978,257.8718262,541.039978,343.6367188,541.039978,349.0930786,541.039978,331.3055725,
541.9400024,-2.33005619,541.9400024,69.93562317,541.9400024,68.63489532,541.9400024,68.22171783,541.9400024,-0.05829381943,541.9400024,0.168207407,541.9400024,0.8130142689,541.9400024,2.844152212,541.9400024,6.965595245,541.9400024,6.405404091,541.9400024,12.7378912,541.9400024,5.897806168,541.9400024,6.984102249,541.9400024,7.898803711,541.9400024,10.48204613,541.9400024,14.61759472,541.9400024,31.33050919,541.9400024,16.07001114,541.9400024,53.24656296,541.9400024,202.291275,541.9400024,275.1443481,541.9400024,257.605896,541.9400024,327.809906,541.9400024,336.8512268,541.9400024,313.1424255,
542.9799805,-2.328794479,542.9799805,68.67825317,542.9799805,64.96861267,542.9799805,66.12320709,542.9799805,-0.2063648701,542.9799805,-0.03182435036,542.9799805,0.7905681133,542.9799805,2.867585897,542.9799805,6.682065964,542.9799805,6.100427628,542.9799805,12.2014761,542.9799805,5.76264286,542.9799805,6.76307106,542.9799805,7.4790802,542.9799805,10.28626537,542.9799805,13.35315514,542.9799805,30.13180542,542.9799805,14.68704319,542.9799805,49.95659637,542.9799805,195.1224365,542.9799805,265.4873047,542.9799805,244.8165283,542.9799805,316.789856,542.9799805,328.0740356,542.9799805,302.1894531,
544.0200195,-2.31983757,544.0200195,65.64123535,544.0200195,63.89947128,544.0200195,63.92865372,544.0200195,-0.169573307,544.0200195,-0.1273760796,544.0200195,0.5819103718,544.0200195,2.626476526,544.0200195,6.66528511,544.0200195,5.811652184,544.0200195,11.69778061,544.0200195,5.435031891,544.0200195,6.435647011,544.0200195,7.177778244,544.0200195,9.826800346,544.0200195,13.52707767,544.0200195,29.07484436,544.0200195,14.68734646,544.0200195,48.03153229,544.0200195,183.971283,544.0200195,255.7893829,544.0200195,238.1542816,544.0200195,302.168396,544.0200195,313.8046875,544.0200195,287.2464294,
545.0700073,-2.329242706,545.0700073,64.53981781,545.0700073,63.10666275,545.0700073,60.83218002,545.0700073,-0.09701299667,545.0700073,-0.2617168427,545.0700073,0.6177864075,545.0700073,2.567904711,545.0700073,6.55547142,545.0700073,5.544905663,545.0700073,11.17260551,545.0700073,5.355132103,545.0700073,6.069952965,545.0700073,6.886973381,545.0700073,9.398005486,545.0700073,12.71996689,545.0700073,27.52223969,545.0700073,14.83900166,545.0700073,45.89906311,545.0700073,176.8956604,545.0700073,243.4382019,545.0700073,223.9352112,545.0700073,296.7237854,545.0700073,305.359436,545.0700073,276.7912598,
545.9699707,-2.385846138,545.9699707,60.76432037,545.9699707,61.0116272,545.9699707,60.07801056,545.9699707,-0.2926065922,545.9699707,-0.2089223862,545.9699707,0.4986906052,545.9699707,2.496380091,545.9699707,6.0254879,545.9699707,5.524918556,545.9699707,10.83797836,545.9699707,5.022616386,545.9699707,5.989954948,545.9699707,6.639379501,545.9699707,9.163731575,545.9699707,12.31142139,545.9699707,27.44790649,545.9699707,13.95979404,545.9699707,44.90477753,545.9699707,173.3814697,545.9699707,235.9481049,545.9699707,220.4202423,545.9699707,285.3654785,545.9699707,292.7060547,545.9699707,272.4214478,
547.0100098,-2.338843822,547.0100098,58.07951355,547.0100098,57.65044403,547.0100098,58.44238663,547.0100098,-0.1927137375,547.0100098,-0.2618429661,547.0100098,0.5493330956,547.0100098,2.369306803,547.0100098,5.691906929,547.0100098,5.267100334,547.0100098,10.62276649,547.0100098,4.762025833,547.0100098,5.881270409,547.0100098,6.58854866,547.0100098,8.941724777,547.0100098,12.14326382,547.0100098,26.27228737,547.0100098,13.83089542,547.0100098,43.3834343,547.0100098,166.3053436,547.0100098,227.0957947,547.0100098,210.5145416,547.0100098,278.8129883,547.0100098,285.7065735,547.0100098,258.8052063,
548.0499878,-2.319161654,548.0499878,56.67292404,548.0499878,55.44500351,548.0499878,55.20374298,548.0499878,-0.2010743618,548.0499878,-0.221735239,548.0499878,0.5587208271,548.0499878,2.235315561,548.0499878,5.819871902,548.0499878,5.054945946,548.0499878,10.42961693,548.0499878,4.927435875,548.0499878,5.505095482,548.0499878,6.507855415,548.0499878,8.664707184,548.0499878,11.92785072,548.0499878,25.81141472,548.0499878,12.98338795,548.0499878,41.74237442,548.0499878,161.3309021,548.0499878,220.5924988,548.0499878,205.5904083,548.0499878,260.6573181,548.0499878,270.7991333,548.0499878,255.8025665,
548.9500122,-2.395090342,548.9500122,55.28845215,548.9500122,54.27296448,548.9500122,54.20832825,548.9500122,-0.1673920155,548.9500122,-0.3319683075,548.9500122,0.5085241795,548.9500122,2.048938036,548.9500122,5.72516346,548.9500122,4.893275261,548.9500122,9.890532494,548.9500122,4.423134804,548.9500122,5.665483475,548.9500122,5.978438377,548.9500122,8.070205688,548.9500122,10.94343758,548.9500122,25.056633,548.9500122,12.843256,548.9500122,41.16439438,548.9500122,156.7812653,548.9500122,217.0020905,548.9500122,198.4902039,548.9500122,255.0221405,548.9500122,269.2421875,548.9500122,245.2676849,
550,-2.280074835,550,53.37358093,550,52.93711472,550,52.32041931,550,-0.4526234865,550,-0.3722171783,550,0.3330934048,550,1.845734358,550,5.590362549,550,4.696581841,550,9.477784157,550,4.391765594,550,5.154574394,550,5.847710609,550,7.753190994,550,10.84685993,550,23.49741173,550,11.98738289,550,39.39517593,550,149.9806976,550,206.8310699,550,189.5018158,550,246.7705688,550,256.1984253,550,233.5590973,
551.039978,-2.319619656,551.039978,51.72283554,551.039978,52.15682983,551.039978,50.83647156,551.039978,-0.2375152111,551.039978,-0.5522947311,551.039978,0.448338747,551.039978,1.783388853,551.039978,5.157939911,551.039978,4.693522453,551.039978,9.161598206,551.039978,4.23309803,551.039978,4.87691021,551.039978,5.444093704,551.039978,7.82868576,551.039978,10.6937151,551.039978,22.70628548,551.039978,11.83070183,551.039978,38.10588074,551.039978,146.986908,551.039978,197.4196014,551.039978,182.6246948,551.039978,238.6539917,551.039978,245.7364655,551.039978,229.3982086,
551.9400024,-2.347493649,551.9400024,49.80860519,551.9400024,50.11643219,551.9400024,49.70926666,551.9400024,-0.3123784065,551.9400024,-0.3438148499,551.9400024,0.3660850525,551.9400024,1.831617594,551.9400024,5.043229103,551.9400024,4.468720436,551.9400024,9.235264778,551.9400024,4.256893158,551.9400024,4.757824898,551.9400024,5.228421211,551.9400024,7.301339149,551.9400024,10.30252647,551.9400024,22.1867981,551.9400024,11.43328381,551.9400024,37.74968338,551.9400024,140.9280548,551.9400024,193.2410736,551.9400024,177.2587585,551.9400024,231.59758,551.9400024,242.3505249,551.9400024,224.5418243,
552.9799805,-2.310374975,552.9799805,48.63701248,552.9799805,47.63941193,552.9799805,47.10484695,552.9799805,-0.3180012703,552.9799805,-0.3783804178,552.9799805,0.3840177059,552.9799805,1.541372776,552.9799805,4.9316082,552.9799805,4.366207123,552.9799805,8.64484024,552.9799805,4.000592232,552.9799805,4.636363029,552.9799805,5.476223946,552.9799805,7.269636154,552.9799805,9.971502304,552.9799805,21.61715889,552.9799805,10.95982838,552.9799805,36.53847885,552.9799805,135.8662109,552.9799805,188.2641754,552.9799805,170.2626801,552.9799805,221.9191589,552.9799805,236.1160126,552.9799805,215.3194427,
554.0200195,-2.357450008,554.0200195,46.6369133,554.0200195,47.51029205,554.0200195,46.16884613,554.0200195,-0.4168503284,554.0200195,-0.4997209311,554.0200195,0.1259689331,554.0200195,1.78662324,554.0200195,4.717598915,554.0200195,4.263777733,554.0200195,8.305737495,554.0200195,3.709804296,554.0200195,4.613100052,554.0200195,4.929934502,554.0200195,6.924918175,554.0200195,9.338112831,554.0200195,20.88561058,554.0200195,10.55704308,554.0200195,35.22549438,554.0200195,130.2184753,554.0200195,183.9670563,554.0200195,170.2259521,554.0200195,220.8995972,554.0200195,225.8960571,554.0200195,207.2877655,
555.0700073,-2.347889423,555.0700073,46.14606476,555.0700073,45.67752457,555.0700073,43.71022034,555.0700073,-0.4543374777,555.0700073,-0.6198954582,555.0700073,0.09235620499,555.0700073,1.570790052,555.0700073,4.220212936,555.0700073,4.041377068,555.0700073,8.099106789,555.0700073,3.522218943,555.0700073,4.491675377,555.0700073,5.150800705,555.0700073,6.812745094,555.0700073,9.313179016,555.0700073,20.43421364,555.0700073,9.978286743,555.0700073,34.19163513,555.0700073,128.1357727,555.0700073,177.2612,555.0700073,165.2173462,555.0700073,210.0873108,555.0700073,216.7186584,555.0700073,199.3838806,
555.9699707,-2.416802168,555.9699707,44.50196838,555.9699707,43.03733063,555.9699707,44.31389999,555.9699707,-0.5398875475,555.9699707,-0.5328044891,555.9699707,0.1205685139,555.9699707,1.466425896,555.9699707,4.509221077,555.9699707,4.113733292,555.9699707,7.490077019,555.9699707,3.24741292,555.9699707,4.38093853,555.9699707,4.724844933,555.9699707,6.611701965,555.9699707,9.269328117,555.9699707,19.65470695,555.9699707,9.998387337,555.9699707,33.36740112,555.9699707,123.1160507,555.9699707,166.4716949,555.9699707,156.843399,555.9699707,205.8020172,555.9699707,212.8484802,555.9699707,194.4710846,
557.0100098,-2.386006594,557.0100098,42.93507767,557.0100098,41.74298096,557.0100098,42.59932709,557.0100098,-0.4947838783,557.0100098,-0.637856245,557.0100098,0.02564167976,557.0100098,1.294583082,557.0100098,4.125162125,557.0100098,3.8262918,557.0100098,7.362794876,557.0100098,3.261059523,557.0100098,3.996059656,557.0100098,4.456751823,557.0100098,6.005764961,557.0100098,8.649009705,557.0100098,18.59857941,557.0100098,9.74516964,557.0100098,31.96543121,557.0100098,119.6023712,557.0100098,164.8183441,557.0100098,150.5719299,557.0100098,195.1860809,557.0100098,202.874527,557.0100098,184.6065826,
558.0499878,-2.385969877,558.0499878,41.59443283,558.0499878,41.05427933,558.0499878,40.59587097,558.0499878,-0.6883175373,558.0499878,-0.5929735899,558.0499878,0.04552483559,558.0499878,1.419275045,558.0499878,4.042439461,558.0499878,3.742930174,558.0499878,6.948775291,558.0499878,3.068119287,558.0499878,3.76994729,558.0499878,4.321202278,558.0499878,6.145992279,558.0499878,8.479945183,558.0499878,18.62210655,558.0499878,9.075798988,558.0499878,31.56066513,558.0499878,115.9558334,558.0499878,161.5868683,558.0499878,150.0880127,558.0499878,192.1566162,558.0499878,198.6947174,558.0499878,183.8615875,
558.9500122,-2.26359272,558.9500122,39.90434265,558.9500122,41.10852432,558.9500122,39.83203506,558.9500122,-0.6033420563,558.9500122,-0.6496325731,558.9500122,-0.02997326851,558.9500122,1.315204144,558.9500122,3.932548761,558.9500122,3.555772543,558.9500122,7.065475464,558.9500122,3.074311018,558.9500122,3.637346029,558.9500122,3.975854158,558.9500122,5.657258987,558.9500122,8.412752151,558.9500122,18.22816467,558.9500122,9.24732399,558.9500122,30.0564003,558.9500122,114.631424,558.9500122,157.4622345,558.9500122,143.866684,558.9500122,185.9313507,558.9500122,191.729126,558.9500122,176.4089966,
560,-2.298219204,560,38.70729065,560,38.58891296,560,38.96318054,560,-0.5708411932,560,-0.6851418018,560,-0.1140341759,560,1.114615917,560,3.822949648,560,3.292417765,560,6.845119476,560,3.170829058,560,3.444744349,560,3.945837736,560,5.720849991,560,8.136652946,560,17.07153702,560,8.753787041,560,29.5655365,560,111.0613327,560,152.8519897,560,140.5130463,560,183.5800171,560,184.7128448,560,170.7145538,
561.0200195,-2.279275894,561.0200195,38.27098846,561.0200195,37.50588608,561.0200195,37.67152405,561.0200195,-0.5798820257,561.0200195,-0.6931545734,561.0200195,-0.0926296711,561.0200195,1.224734545,561.0200195,3.510701418,561.0200195,3.141622305,561.0200195,6.577746391,561.0200195,2.647822142,561.0200195,3.353443861,561.0200195,3.719345331,561.0200195,5.477783203,561.0200195,7.688718796,561.0200195,16.87816048,561.0200195,8.445135117,561.0200195,28.36158752,561.0200195,107.4521332,561.0200195,146.3156128,561.0200195,136.0590363,561.0200195,172.4406433,561.0200195,179.0404968,561.0200195,166.5987091,
562.0499878,-2.3664608,562.0499878,36.77536392,562.0499878,35.90319824,562.0499878,36.17904663,562.0499878,-0.7638269663,562.0499878,-0.7282018661,562.0499878,-0.3180954456,562.0499878,0.9848906994,562.0499878,3.354240179,562.0499878,2.99488616,562.0499878,6.304831505,562.0499878,2.416964293,562.0499878,3.136308908,562.0499878,3.678447008,562.0499878,5.288912773,562.0499878,7.401666641,562.0499878,16.16302872,562.0499878,7.888289452,562.0499878,27.16919327,562.0499878,103.2355576,562.0499878,144.0701599,562.0499878,128.2709198,562.0499878,169.5092621,562.0499878,174.6944275,562.0499878,162.2586823,
562.9400024,-2.366667747,562.9400024,35.20114899,562.9400024,35.44047928,562.9400024,34.81443405,562.9400024,-0.6898938417,562.9400024,-0.8094521761,562.9400024,-0.3511221409,562.9400024,0.9488666058,562.9400024,3.256300211,562.9400024,3.001497984,562.9400024,5.716615677,562.9400024,2.447229624,562.9400024,3.088390589,562.9400024,3.56067872,562.9400024,4.893871307,562.9400024,7.427900314,562.9400024,15.37508869,562.9400024,7.85882473,562.9400024,26.66081429,562.9400024,100.8474274,562.9400024,136.8193207,562.9400024,128.0021667,562.9400024,167.7197266,562.9400024,168.3564758,562.9400024,156.3267822,
563.9699707,-2.33745122,563.9699707,34.28354263,563.9699707,33.9379921,563.9699707,33.59626007,563.9699707,-0.7402660847,563.9699707,-0.8332260847,563.9699707,-0.3321709633,563.9699707,0.90208745,563.9699707,2.909231901,563.9699707,2.705747843,563.9699707,5.698574066,563.9699707,2.341216326,563.9699707,2.78801322,563.9699707,3.266337156,563.9699707,4.62109375,563.9699707,7.010141373,563.9699707,15.07439327,563.9699707,7.323256493,563.9699707,25.67268181,563.9699707,96.90265656,563.9699707,134.6654816,563.9699707,123.0381622,563.9699707,157.4756165,563.9699707,162.5984802,563.9699707,152.5667572,
565,-2.367042065,565,33.24795151,565,32.70488739,565,32.72927094,565,-0.8729757071,565,-0.8848828077,565,-0.4865015745,565,0.7567579746,565,2.851025343,565,2.588421583,565,5.520235062,565,2.159188032,565,2.939794302,565,3.1261518,565,4.520226479,565,6.759030342,565,14.60311222,565,7.115631104,565,24.54139137,565,94.390625,565,128.5435944,565,120.1716766,565,155.7055664,565,159.7953644,565,143.9984741,
566.0200195,-2.405922413,566.0200195,32.46421814,566.0200195,31.18220139,566.0200195,31.63264847,566.0200195,-0.8754570484,566.0200195,-0.8788813353,566.0200195,-0.4695308208,566.0200195,0.5703504086,566.0200195,2.840161085,566.0200195,2.412419081,566.0200195,5.018256187,566.0200195,1.890099764,566.0200195,2.924597979,566.0200195,2.973031282,566.0200195,4.291522026,566.0200195,6.358573914,566.0200195,14.2151022,566.0200195,6.983228683,566.0200195,24.39185524,566.0200195,90.66031647,566.0200195,124.3125687,566.0200195,115.3205566,566.0200195,149.5010223,566.0200195,151.2641754,566.0200195,139.0204163,
567.0499878,-2.414598227,567.0499878,31.19841003,567.0499878,30.96677017,567.0499878,30.09423447,567.0499878,-0.8703961372,567.0499878,-0.9357168674,567.0499878,-0.2804679871,567.0499878,0.4687919617,567.0499878,2.609843493,567.0499878,2.414726496,567.0499878,5.089031219,567.0499878,1.858327627,567.0499878,2.467582941,567.0499878,2.787905455,567.0499878,4.102270126,567.0499878,6.014975548,567.0499878,13.19645596,567.0499878,6.545983315,567.0499878,23.39930153,567.0499878,87.3059082,567.0499878,120.4333115,567.0499878,111.1274185,567.0499878,144.7476654,567.0499878,146.9609528,567.0499878,134.8122864,
567.9400024,-2.444329023,567.9400024,30.41064835,567.9400024,30.15589905,567.9400024,29.63754654,567.9400024,-0.9156138897,567.9400024,-0.9812707901,567.9400024,-0.5247508287,567.9400024,0.451985836,567.9400024,2.576874971,567.9400024,2.211665869,567.9400024,4.872086525,567.9400024,1.700597048,567.9400024,2.487156153,567.9400024,2.746081591,567.9400024,4.052316666,567.9400024,5.801399231,567.9400024,12.91418648,567.9400024,6.355741501,567.9400024,22.48130417,567.9400024,84.34924316,567.9400024,117.0973969,567.9400024,107.8131866,567.9400024,139.5088501,567.9400024,139.4264374,567.9400024,130.0141449,
568.9699707,-2.30012989,568.9699707,28.83567238,568.9699707,29.16210556,568.9699707,28.10224533,568.9699707,-0.9037204981,568.9699707,-1.081285834,568.9699707,-0.6633871794,568.9699707,0.3907177448,568.9699707,2.499080896,568.9699707,2.125168085,568.9699707,4.67899704,568.9699707,1.6454494,568.9699707,2.163648367,568.9699707,2.519050837,568.9699707,3.641030073,568.9699707,5.534895897,568.9699707,12.65389347,568.9699707,6.062347412,568.9699707,21.269701,568.9699707,81.34225464,568.9699707,112.1722794,568.9699707,102.4798965,568.9699707,133.7155914,568.9699707,138.1863251,568.9699707,126.9990997,
570,-2.347919226,570,27.50712776,570,27.59453392,570,26.79619789,570,-0.9885179996,570,-1.044305325,570,-0.713351965,570,0.2789754868,570,2.250891924,570,1.909428358,570,4.261315346,570,1.513273001,570,2.029933691,570,2.319772005,570,3.623969316,570,5.349471092,570,12.0823555,570,5.551631927,570,20.69080353,570,77.5592041,570,106.1476212,570,98.83876038,570,130.390213,570,131.1703339,570,119.6541901,
571.039978,-2.308450222,571.039978,26.2609024,571.039978,27.09950829,571.039978,25.86191177,571.039978,-1.077232361,571.039978,-1.059991479,571.039978,-0.6678313017,571.039978,0.2654442787,571.039978,2.051961184,571.039978,1.698320627,571.039978,4.144795418,571.039978,1.309076786,571.039978,1.875717878,571.039978,2.267148256,571.039978,3.129497766,571.039978,5.03413105,571.039978,11.29878998,571.039978,5.451416016,571.039978,19.52619743,571.039978,75.38458252,571.039978,103.8658218,571.039978,95.1007843,571.039978,122.4560394,571.039978,128.937027,571.039978,114.653862,
571.9400024,-2.405294418,571.9400024,25.13158989,571.9400024,25.25889206,571.9400024,25.63271332,571.9400024,-1.085110068,571.9400024,-1.145882726,571.9400024,-0.6568911076,571.9400024,0.2808606625,571.9400024,2.028767824,571.9400024,1.596654177,571.9400024,3.906164885,571.9400024,1.065312862,571.9400024,1.734536409,571.9400024,2.046725035,571.9400024,3.119878054,571.9400024,4.808551788,571.9400024,11.18369198,571.9400024,5.248930931,571.9400024,18.51497269,571.9400024,73.26295471,571.9400024,101.087326,571.9400024,91.68830109,571.9400024,118.6235123,571.9400024,121.8967056,571.9400024,113.855011,
572.9799805,-2.327066898,572.9799805,24.9509182,572.9799805,25.0366993,572.9799805,24.0598011,572.9799805,-1.059243083,572.9799805,-1.253875613,572.9799805,-0.8016918898,572.9799805,-0.06407761574,572.9799805,1.765033484,572.9799805,1.526470423,572.9799805,3.907109976,572.9799805,1.14497304,572.9799805,1.587541103,572.9799805,1.931081533,572.9799805,3.015770197,572.9799805,4.439596176,572.9799805,10.47151184,572.9799805,4.863767624,572.9799805,18.48997688,572.9799805,68.89836121,572.9799805,97.00538635,572.9799805,88.91836548,572.9799805,115.6766891,572.9799805,118.4103699,572.9799805,110.0575485,
574.0200195,-2.282613754,574.0200195,23.84540176,574.0200195,23.31574059,574.0200195,22.94345284,574.0200195,-1.143496871,574.0200195,-1.118565679,574.0200195,-0.8614726067,574.0200195,0.01608753204,574.0200195,1.64700675,574.0200195,1.390597105,574.0200195,3.820687056,574.0200195,1.087401867,574.0200195,1.50754714,574.0200195,1.58954215,574.0200195,2.622729063,574.0200195,4.099603653,574.0200195,10.29335117,574.0200195,4.519966125,574.0200195,17.22027779,574.0200195,66.77194214,574.0200195,91.19303894,574.0200195,84.73162842,574.0200195,110.1356354,574.0200195,113.0237198,574.0200195,104.1475372,
575.0700073,-2.356297016,575.0700073,22.40268898,575.0700073,22.02955818,575.0700073,21.96420479,575.0700073,-1.157990932,575.0700073,-1.319158196,575.0700073,-0.8869777918,575.0700073,-0.03627610207,575.0700073,1.520219564,575.0700073,1.228901148,575.0700073,3.266342402,575.0700073,0.8743155003,575.0700073,1.313576937,575.0700073,1.583631039,575.0700073,2.615752935,575.0700073,4.011441231,575.0700073,9.663189888,575.0700073,4.317438126,575.0700073,16.72385597,575.0700073,64.47623444,575.0700073,88.21328735,575.0700073,79.63352966,575.0700073,104.4916611,575.0700073,110.4233856,575.0700073,98.20862579,
575.9699707,-2.405038834,575.9699707,21.34639359,575.9699707,21.57923317,575.9699707,21.07646942,575.9699707,-1.314515829,575.9699707,-1.237892747,575.9699707,-0.9441236258,575.9699707,-0.2765800953,575.9699707,1.416287661,575.9699707,1.245654106,575.9699707,3.025223017,575.9699707,0.9080052376,575.9699707,1.21894908,575.9699707,1.368710995,575.9699707,2.366930246,575.9699707,3.883006811,575.9699707,9.086852074,575.9699707,3.913331747,575.9699707,15.92662716,575.9699707,60.62392807,575.9699707,84.76085663,575.9699707,77.45862579,575.9699707,100.1543579,575.9699707,102.8029099,575.9699707,95.2229538,
577.0100098,-2.404613495,577.0100098,20.77914238,577.0100098,20.79187012,577.0100098,20.26467896,577.0100098,-1.127998352,577.0100098,-1.354989052,577.0100098,-0.9851498604,577.0100098,-0.1898498535,577.0100098,1.26850462,577.0100098,0.9656202793,577.0100098,3.038668871,577.0100098,0.7499744892,577.0100098,1.010273933,577.0100098,1.33859539,577.0100098,2.408430815,577.0100098,3.77517581,577.0100098,8.684583664,577.0100098,3.794903517,577.0100098,15.17045116,577.0100098,59.98361969,577.0100098,81.96231842,577.0100098,75.41242981,577.0100098,95.79714966,577.0100098,101.8306732,577.0100098,90.97950745,
578.0499878,-2.270525694,578.0499878,19.58572197,578.0499878,18.96733665,578.0499878,19.45917702,578.0499878,-1.212569833,578.0499878,-1.224948049,578.0499878,-0.9910326004,578.0499878,-0.4565806389,578.0499878,1.090189457,578.0499878,0.9805021286,578.0499878,2.643764257,578.0499878,0.5969157219,578.0499878,1.058795452,578.0499878,1.249325752,578.0499878,2.188566923,578.0499878,3.537495852,578.0499878,8.310603142,578.0499878,3.353352308,578.0499878,14.71664906,578.0499878,56.77159882,578.0499878,78.0683136,578.0499878,72.47695923,578.0499878,92.65804291,578.0499878,94.92874146,578.0499878,88.54465485,
578.9500122,-2.39541173,578.9500122,19.00304031,578.9500122,18.86665726,578.9500122,18.60229874,578.9500122,-1.4198879,578.9500122,-1.38876009,578.9500122,-0.9558033943,578.9500122,-0.2958517075,578.9500122,1.031089544,578.9500122,0.8859272003,578.9500122,2.415341139,578.9500122,0.4785487652,578.9500122,0.7830629349,578.9500122,1.103984594,578.9500122,1.878192186,578.9500122,3.295305967,578.9500122,7.976013184,578.9500122,3.362876177,578.9500122,13.62548542,578.9500122,54.36816025,578.9500122,74.17182159,578.9500122,69.53781128,578.9500122,90.19573975,578.9500122,91.79359436,578.9500122,82.78141785,
580,-2.328394651,580,17.81693077,580,17.9377346,580,17.83385468,580,-1.283135056,580,-1.441570044,580,-1.027723432,580,-0.3536379337,580,0.764051199,580,0.6975522041,580,2.553764582,580,0.4210944176,580,0.7077713013,580,1.000474215,580,1.840424776,580,3.12093091,580,7.242442131,580,3.036111116,580,13.00315475,580,51.78574753,580,71.87450409,580,65.63448334,580,85.06367493,580,88.94268799,580,79.51260376,
581.0200195,-2.416102886,581.0200195,17.37188911,581.0200195,17.29329872,581.0200195,16.63448906,581.0200195,-1.328066707,581.0200195,-1.309247375,581.0200195,-1.00367558,581.0200195,-0.5426739454,581.0200195,0.8145473003,581.0200195,0.5390052795,581.0200195,2.138898134,581.0200195,0.3322188854,581.0200195,0.7019250393,581.0200195,0.7746827602,581.0200195,1.500797749,581.0200195,2.773585081,581.0200195,7.268417358,581.0200195,2.833578825,581.0200195,12.358428,581.0200195,48.86899567,581.0200195,67.68383026,581.0200195,62.34489059,581.0200195,80.11896515,581.0200195,83.87041473,581.0200195,76.90426636,
582.0499878,-2.376391649,582.0499878,16.39213753,582.0499878,16.06181717,582.0499878,16.03168488,582.0499878,-1.302532911,582.0499878,-1.495030522,582.0499878,-1.142945766,582.0499878,-0.6885318756,582.0499878,0.7914872169,582.0499878,0.4827039242,582.0499878,1.74829936,582.0499878,0.1758449078,582.0499878,0.3949091434,582.0499878,0.6465888023,582.0499878,1.443721056,582.0499878,2.644976854,582.0499878,6.58101368,582.0499878,2.775196791,582.0499878,12.06926346,582.0499878,47.25483322,582.0499878,65.05748749,582.0499878,60.883358,582.0499878,76.39231873,582.0499878,79.92027283,582.0499878,73.21051788,
582.9400024,-2.34782815,582.9400024,15.97395611,582.9400024,15.85633564,582.9400024,15.37559032,582.9400024,-1.412255526,582.9400024,-1.490409851,582.9400024,-1.246905565,582.9400024,-0.7078447342,582.9400024,0.6126608849,582.9400024,0.3725597858,582.9400024,1.955256701,582.9400024,0.1244847775,582.9400024,0.3496594429,582.9400024,0.7247488499,582.9400024,1.240893602,582.9400024,2.457355738,582.9400024,6.462129593,582.9400024,2.5728333,582.9400024,11.74452019,582.9400024,45.99542236,582.9400024,62.27865982,582.9400024,57.56787872,582.9400024,73.54556274,582.9400024,76.20411682,582.9400024,69.57891083,
583.9699707,-2.281539202,583.9699707,15.11112499,583.9699707,15.22848225,583.9699707,14.89224529,583.9699707,-1.40760386,583.9699707,-1.500145197,583.9699707,-1.19010663,583.9699707,-0.5928809643,583.9699707,0.5558583736,583.9699707,0.3051576614,583.9699707,1.84551549,583.9699707,-0.02401304245,583.9699707,0.3607997894,583.9699707,0.5135285854,583.9699707,1.155205011,583.9699707,2.184998751,583.9699707,6.102254868,583.9699707,2.169236898,583.9699707,10.90316868,583.9699707,42.97821808,583.9699707,59.50063705,583.9699707,55.04454803,583.9699707,70.16596222,583.9699707,72.80865479,583.9699707,66.93710327,
585,-2.395261526,585,14.16137791,585,14.10075474,585,14.40479183,585,-1.491503954,585,-1.532181025,585,-1.373507142,585,-0.6886198521,585,0.523573637,585,0.2440936565,585,1.594703913,585,-0.1400055885,585,0.3545837402,585,0.3973731995,585,1.146116972,585,2.09370923,585,5.646956444,585,2.13154006,585,10.56218243,585,41.5146637,585,57.16763306,585,53.15296173,585,68.14182281,585,69.25807953,585,63.42937088,
586.0200195,-2.385912895,586.0200195,13.65087986,586.0200195,13.39227104,586.0200195,13.32631588,586.0200195,-1.497033834,586.0200195,-1.493861914,586.0200195,-1.281938553,586.0200195,-0.6628470421,586.0200195,0.1789348125,586.0200195,0.1591100693,586.0200195,1.395776749,586.0200195,-0.05820941925,586.0200195,0.1585450172,586.0200195,0.1127653122,586.0200195,0.8277280331,586.0200195,1.904695749,586.0200195,5.484075546,586.0200195,2.076333284,586.0200195,10.05142117,586.0200195,38.12088394,586.0200195,54.59503937,586.0200195,49.70664597,586.0200195,62.79809952,586.0200195,67.05028534,586.0200195,61.47658157,
587.0499878,-2.395666599,587.0499878,12.61784172,587.0499878,12.43303394,587.0499878,12.47709274,587.0499878,-1.548234224,587.0499878,-1.510374188,587.0499878,-1.312313557,587.0499878,-0.7706557512,587.0499878,0.3016965389,587.0499878,0.09470701218,587.0499878,1.24348402,587.0499878,-0.1876144409,587.0499878,0.05288887024,587.0499878,0.2280786037,587.0499878,0.9518930912,587.0499878,2.051417112,587.0499878,5.081495285,587.0499878,1.907181025,587.0499878,9.449160576,587.0499878,37.18600082,587.0499878,52.12072754,587.0499878,47.86027908,587.0499878,61.27852249,587.0499878,63.65401077,587.0499878,58.81776428,
587.9400024,-2.366897583,587.9400024,12.13739681,587.9400024,12.30839539,587.9400024,12.30800819,587.9400024,-1.545991421,587.9400024,-1.527698755,587.9400024,-1.277562737,587.9400024,-0.8454756737,587.9400024,0.04917025566,587.9400024,-0.05771827698,587.9400024,0.9262466431,587.9400024,-0.3278052807,587.9400024,-0.0823943615,587.9400024,0.08968806267,587.9400024,0.8046486378,587.9400024,1.718697786,587.9400024,4.900826454,587.9400024,1.614496946,587.9400024,9.14818573,587.9400024,35.94002533,587.9400024,49.54553604,587.9400024,44.69813538,587.9400024,58.91478729,587.9400024,60.48963928,587.9400024,54.98128128,
588.9699707,-2.338966846,588.9699707,11.86166763,588.9699707,11.62079048,588.9699707,11.73513889,588.9699707,-1.546421051,588.9699707,-1.567622662,588.9699707,-1.34464407,588.9699707,-0.9392726421,588.9699707,0.05243420601,588.9699707,-0.1194992065,588.9699707,1.032851458,588.9699707,-0.4207139015,588.9699707,0.08828306198,588.9699707,0.03249192238,588.9699707,0.5324702263,588.9699707,1.505114317,588.9699707,4.672265053,588.9699707,1.424060106,588.9699707,8.531551361,588.9699707,34.77971268,588.9699707,46.92335129,588.9699707,42.69862747,588.9699707,56.00803757,588.9699707,57.21126938,588.9699707,52.25322723,
590,-2.376391649,590,11.19407368,590,11.37858391,590,10.81554794,590,-1.644221544,590,-1.607650042,590,-1.392035127,590,-0.8088307381,590,-0.0487639904,590,-0.1581130028,590,0.7995252609,590,-0.4336820841,590,-0.1396052837,590,-0.05978941917,590,0.6371741295,590,1.366300583,590,4.461279869,590,1.208416939,590,7.982579231,590,32.66378021,590,45.36134338,590,41.24201584,590,53.3790741,590,54.66992569,590,50.48885727,
591.0200195,-2.319986343,591.0200195,10.8003149,591.0200195,10.20367622,591.0200195,10.15017986,591.0200195,-1.655199051,591.0200195,-1.647480965,591.0200195,-1.408420086,591.0200195,-0.9752173424,591.0200195,-0.0195119381,591.0200195,-0.2290904522,591.0200195,0.704056263,591.0200195,-0.4802395105,591.0200195,-0.05283403397,591.0200195,-0.02018523216,591.0200195,0.3456950188,591.0200195,1.385603666,591.0200195,4.039633751,591.0200195,1.269114256,591.0200195,7.896642685,591.0200195,31.377285,591.0200195,43.46431732,591.0200195,39.58952713,591.0200195,52.32705307,591.0200195,52.85847092,591.0200195,48.2178421,
592.0499878,-2.385805607,592.0499878,10.60072899,592.0499878,9.616112709,592.0499878,10.09449005,592.0499878,-1.533596992,592.0499878,-1.634678841,592.0499878,-1.391499519,592.0499878,-0.9382770061,592.0499878,-0.07908511162,592.0499878,-0.1926977634,592.0499878,0.5651781559,592.0499878,-0.5381934643,592.0499878,-0.2157468796,592.0499878,-0.3250489235,592.0499878,0.3566055298,592.0499878,1.19416666,592.0499878,3.726126909,592.0499878,1.158764124,592.0499878,7.448925972,592.0499878,29.56113243,592.0499878,40.29757309,592.0499878,37.91355515,592.0499878,49.35726547,592.0499878,50.59284973,592.0499878,46.16720581,
592.9400024,-2.291860819,592.9400024,9.538021088,592.9400024,9.532207489,592.9400024,9.514417648,592.9400024,-1.668356895,592.9400024,-1.602253437,592.9400024,-1.356330395,592.9400024,-1.041066289,592.9400024,-0.2583656311,592.9400024,-0.3461551666,592.9400024,0.5401127338,592.9400024,-0.6631679535,592.9400024,-0.3977316618,592.9400024,-0.1057014465,592.9400024,0.2443282604,592.9400024,0.9897933006,592.9400024,3.537546396,592.9400024,1.020419359,592.9400024,7.255760193,592.9400024,28.54683685,592.9400024,39.45911789,592.9400024,35.22946167,592.9400024,47.63445663,592.9400024,49.04179382,592.9400024,45.10196304,
593.9699707,-2.338267326,593.9699707,9.499479294,593.9699707,9.044466972,593.9699707,9.151968956,593.9699707,-1.592980623,593.9699707,-1.779112101,593.9699707,-1.448291063,593.9699707,-1.16362226,593.9699707,-0.312120676,593.9699707,-0.3506193161,593.9699707,0.349732399,593.9699707,-0.6670399904,593.9699707,-0.3083853722,593.9699707,-0.2631242275,593.9699707,0.2947554588,593.9699707,1.070462942,593.9699707,3.282176256,593.9699707,0.7915070057,593.9699707,6.588736534,593.9699707,27.37025642,593.9699707,37.92182159,593.9699707,33.85167313,593.9699707,45.57782364,593.9699707,46.76097488,593.9699707,42.0077858,
595,-2.301105261,595,8.893096924,595,8.347289085,595,8.840631485,595,-1.699827909,595,-1.601465702,595,-1.590064287,595,-1.186264038,595,-0.2809693813,595,-0.4748057127,595,0.3591883183,595,-0.7263674736,595,-0.4762554169,595,-0.3393054008,595,0.1525604725,595,0.886715889,595,3.173981428,595,0.633854866,595,6.448816299,595,25.69348145,595,35.62062454,595,32.83559036,595,42.81291962,595,43.6958847,595,40.56119919,
596.0200195,-2.33768034,596.0200195,7.97512722,596.0200195,8.263374329,596.0200195,8.489209175,596.0200195,-1.698418975,596.0200195,-1.715748549,596.0200195,-1.538490891,596.0200195,-1.173056364,596.0200195,-0.4225997925,596.0200195,-0.5221449137,596.0200195,0.3366279602,596.0200195,-0.7411315441,596.0200195,-0.5495160818,596.0200195,-0.4678843021,596.0200195,-0.07843613625,596.0200195,0.7597515583,596.0200195,2.900167704,596.0200195,0.6204612255,596.0200195,6.079689026,596.0200195,24.98397064,596.0200195,34.35422134,596.0200195,31.31933212,596.0200195,41.2444458,596.0200195,41.79541016,596.0200195,38.54145813,
597.0499878,-2.282363415,597.0499878,8.01044178,597.0499878,7.735678673,597.0499878,7.934267998,597.0499878,-1.739695787,597.0499878,-1.79966855,597.0499878,-1.485211492,597.0499878,-1.240006685,597.0499878,-0.4493480921,597.0499878,-0.4039677382,597.0499878,0.2293331623,597.0499878,-0.7903488874,597.0499878,-0.5877844095,597.0499878,-0.5437061787,597.0499878,-0.1058428288,597.0499878,0.558044672,597.0499878,2.786299467,597.0499878,0.604306221,597.0499878,5.462561607,597.0499878,23.28764534,597.0499878,32.90898514,597.0499878,30.27587128,597.0499878,39.41445923,597.0499878,39.83729172,597.0499878,37.29507446,
597.9400024,-2.31985569,597.9400024,8.014680862,597.9400024,7.462965965,597.9400024,7.799659729,597.9400024,-1.701530218,597.9400024,-1.757532597,597.9400024,-1.621852636,597.9400024,-1.166983008,597.9400024,-0.4106169939,597.9400024,-0.6019865274,597.9400024,0.04178261757,597.9400024,-0.8222391605,597.9400024,-0.5447717905,597.9400024,-0.6974189281,597.9400024,-0.07864952087,597.9400024,0.6375288963,597.9400024,2.523466349,597.9400024,0.514320612,597.9400024,5.448277473,597.9400024,22.45041275,597.9400024,31.60055923,597.9400024,29.46645737,597.9400024,38.36455917,597.9400024,38.84233093,597.9400024,35.52739716,
598.9699707,-2.385923147,598.9699707,7.10891819,598.9699707,7.174514771,598.9699707,7.071828842,598.9699707,-1.740717173,598.9699707,-1.765277267,598.9699707,-1.619730234,598.9699707,-1.235807657,598.9699707,-0.5820586681,598.9699707,-0.6078695059,598.9699707,0.05129718781,598.9699707,-0.9152690172,598.9699707,-0.5851613283,598.9699707,-0.6370325089,598.9699707,-0.1241180897,598.9699707,0.3709652424,598.9699707,2.333374739,598.9699707,0.4274425507,598.9699707,5.105751991,598.9699707,21.82877541,598.9699707,30.56262589,598.9699707,26.84392357,598.9699707,36.34977722,598.9699707,37.99848938,598.9699707,34.03121567,
600,-2.338840961,600,7.043338776,600,6.786775589,600,6.721178055,600,-1.672675371,600,-1.760884643,600,-1.608902931,600,-1.250455737,600,-0.5834131241,600,-0.7831332684,600,-0.01680159569,600,-0.9467643499,600,-0.6924849749,600,-0.6329247952,600,-0.3762235641,600,0.3211071491,600,2.138194323,600,0.1760485172,600,4.867501259,600,20.58655548,600,29.08591843,600,26.66726685,600,34.85107803,600,35.76218796,600,32.46579742,

bl,
bl
Collection Time: 8/21/2023 12:32:43 PM
Operator Name  :
Scan Software Version: 1.2(147)
Parameter List :
Instrument                        Cary Eclipse
Instrument Serial Number          MY15120005
Data mode                         Fluorescence
Scan mode                         Emission
X Mode                            Wavelength (nm)
Start (nm)                        500.00
Stop (nm)                         600.00
Ex. Wavelength (nm)               495.00
Ex. Slit (nm)                     5
Em. Slit (nm)                     5
Scan rate (nm/min)                600.00
Data interval (nm)                1.0000
Averaging Time (s)                0.1000
Excitation filter                 Auto
Emission filter                   Open
PMT voltage (V)                   Medium
Corrected spectra                 OFF
Method Log     :
Method Name    : Default
Date/Time stamp: 8/21/2023 12:30:33 PM
Method Modifications:
User Delta Stop Changed: 8/21/2023 12:31:55 PM, Old: 450.00, New: 495.00
User Delta Increment Changed: 8/21/2023 12:31:55 PM, Old:  10.00, New:   0.15
Excitation Wavelength Changed: 8/21/2023 12:31:55 PM, Old: 350.00, New: 495.00
Emission Wavelength Changed: 8/21/2023 12:31:55 PM, Old: 400.00, New: 500.00
Zero Mode Changed: 8/21/2023 12:32:38 PM, Old:OFF, New:Reading
Zero Mode Changed: 8/21/2023 12:32:39 PM, Old:Reading, New:ON
End Method Modifications

fitcbsa alone,
fitcbsa alone
Collection Time: 8/21/2023 12:34:03 PM
Operator Name  :
Scan Software Version: 1.2(147)
Parameter List :
Instrument                        Cary Eclipse
Instrument Serial Number          MY15120005
Data mode                         Fluorescence
Scan mode                         Emission
X Mode                            Wavelength (nm)
Start (nm)                        500.00
Stop (nm)                         600.00
Ex. Wavelength (nm)               495.00
Ex. Slit (nm)                     5
Em. Slit (nm)                     5
Scan rate (nm/min)                600.00
Data interval (nm)                1.0000
Averaging Time (s)                0.1000
Excitation filter                 Auto
Emission filter                   Open
PMT voltage (V)                   Medium
Corrected spectra                 OFF
Method Log     :
Method Name    : Default
Date/Time stamp: 8/21/2023 12:30:33 PM
Method Modifications:
User Delta Stop Changed: 8/21/2023 12:31:55 PM, Old: 450.00, New: 495.00
User Delta Increment Changed: 8/21/2023 12:31:55 PM, Old:  10.00, New:   0.15
Excitation Wavelength Changed: 8/21/2023 12:31:55 PM, Old: 350.00, New: 495.00
Emission Wavelength Changed: 8/21/2023 12:31:55 PM, Old: 400.00, New: 500.00
Zero Mode Changed: 8/21/2023 12:32:38 PM, Old:OFF, New:Reading
Zero Mode Changed: 8/21/2023 12:32:39 PM, Old:Reading, New:ON
End Method Modifications

fbsaalone2,
fbsaalone2
Collection Time: 8/21/2023 12:34:23 PM
Operator Name  :
Scan Software Version: 1.2(147)
Parameter List :
Instrument                        Cary Eclipse
Instrument Serial Number          MY15120005
Data mode                         Fluorescence
Scan mode                         Emission
X Mode                            Wavelength (nm)
Start (nm)                        500.00
Stop (nm)                         600.00
Ex. Wavelength (nm)               495.00
Ex. Slit (nm)                     5
Em. Slit (nm)                     5
Scan rate (nm/min)                600.00
Data interval (nm)                1.0000
Averaging Time (s)                0.1000
Excitation filter                 Auto
Emission filter                   Open
PMT voltage (V)                   Medium
Corrected spectra                 OFF
Method Log     :
Method Name    : Default
Date/Time stamp: 8/21/2023 12:30:33 PM
Method Modifications:
User Delta Stop Changed: 8/21/2023 12:31:55 PM, Old: 450.00, New: 495.00
User Delta Increment Changed: 8/21/2023 12:31:55 PM, Old:  10.00, New:   0.15
Excitation Wavelength Changed: 8/21/2023 12:31:55 PM, Old: 350.00, New: 495.00
Emission Wavelength Changed: 8/21/2023 12:31:55 PM, Old: 400.00, New: 500.00
Zero Mode Changed: 8/21/2023 12:32:38 PM, Old:OFF, New:Reading
Zero Mode Changed: 8/21/2023 12:32:39 PM, Old:Reading, New:ON
End Method Modifications

fbsaalone3,
fbsaalone3
Collection Time: 8/21/2023 12:34:43 PM
Operator Name  :
Scan Software Version: 1.2(147)
Parameter List :
Instrument                        Cary Eclipse
Instrument Serial Number          MY15120005
Data mode                         Fluorescence
Scan mode                         Emission
X Mode                            Wavelength (nm)
Start (nm)                        500.00
Stop (nm)                         600.00
Ex. Wavelength (nm)               495.00
Ex. Slit (nm)                     5
Em. Slit (nm)                     5
Scan rate (nm/min)                600.00
Data interval (nm)                1.0000
Averaging Time (s)                0.1000
Excitation filter                 Auto
Emission filter                   Open
PMT voltage (V)                   Medium
Corrected spectra                 OFF
Method Log     :
Method Name    : Default
Date/Time stamp: 8/21/2023 12:30:33 PM
Method Modifications:
User Delta Stop Changed: 8/21/2023 12:31:55 PM, Old: 450.00, New: 495.00
User Delta Increment Changed: 8/21/2023 12:31:55 PM, Old:  10.00, New:   0.15
Excitation Wavelength Changed: 8/21/2023 12:31:55 PM, Old: 350.00, New: 495.00
Emission Wavelength Changed: 8/21/2023 12:31:55 PM, Old: 400.00, New: 500.00
Zero Mode Changed: 8/21/2023 12:32:38 PM, Old:OFF, New:Reading
Zero Mode Changed: 8/21/2023 12:32:39 PM, Old:Reading, New:ON
End Method Modifications

ph5 1,
ph5 1
Collection Time: 8/21/2023 12:36:00 PM
Operator Name  :
Scan Software Version: 1.2(147)
Parameter List :
Instrument                        Cary Eclipse
Instrument Serial Number          MY15120005
Data mode                         Fluorescence
Scan mode                         Emission
X Mode                            Wavelength (nm)
Start (nm)                        500.00
Stop (nm)                         600.00
Ex. Wavelength (nm)               495.00
Ex. Slit (nm)                     5
Em. Slit (nm)                     5
Scan rate (nm/min)                600.00
Data interval (nm)                1.0000
Averaging Time (s)                0.1000
Excitation filter                 Auto
Emission filter                   Open
PMT voltage (V)                   Medium
Corrected spectra                 OFF
Method Log     :
Method Name    : Default
Date/Time stamp: 8/21/2023 12:30:33 PM
Method Modifications:
User Delta Stop Changed: 8/21/2023 12:31:55 PM, Old: 450.00, New: 495.00
User Delta Increment Changed: 8/21/2023 12:31:55 PM, Old:  10.00, New:   0.15
Excitation Wavelength Changed: 8/21/2023 12:31:55 PM, Old: 350.00, New: 495.00
Emission Wavelength Changed: 8/21/2023 12:31:55 PM, Old: 400.00, New: 500.00
Zero Mode Changed: 8/21/2023 12:32:38 PM, Old:OFF, New:Reading
Zero Mode Changed: 8/21/2023 12:32:39 PM, Old:Reading, New:ON
End Method Modifications

ph5 2,
ph5 2
Collection Time: 8/21/2023 12:37:04 PM
Operator Name  :
Scan Software Version: 1.2(147)
Parameter List :
Instrument                        Cary Eclipse
Instrument Serial Number          MY15120005
Data mode                         Fluorescence
Scan mode                         Emission
X Mode                            Wavelength (nm)
Start (nm)                        500.00
Stop (nm)                         600.00
Ex. Wavelength (nm)               495.00
Ex. Slit (nm)                     5
Em. Slit (nm)                     5
Scan rate (nm/min)                600.00
Data interval (nm)                1.0000
Averaging Time (s)                0.1000
Excitation filter                 Auto
Emission filter                   Open
PMT voltage (V)                   Medium
Corrected spectra                 OFF
Method Log     :
Method Name    : Default
Date/Time stamp: 8/21/2023 12:30:33 PM
Method Modifications:
User Delta Stop Changed: 8/21/2023 12:31:55 PM, Old: 450.00, New: 495.00
User Delta Increment Changed: 8/21/2023 12:31:55 PM, Old:  10.00, New:   0.15
Excitation Wavelength Changed: 8/21/2023 12:31:55 PM, Old: 350.00, New: 495.00
Emission Wavelength Changed: 8/21/2023 12:31:55 PM, Old: 400.00, New: 500.00
Zero Mode Changed: 8/21/2023 12:32:38 PM, Old:OFF, New:Reading
Zero Mode Changed: 8/21/2023 12:32:39 PM, Old:Reading, New:ON
End Method Modifications

pH 5 3,
pH 5 3
Collection Time: 8/21/2023 12:38:14 PM
Operator Name  :
Scan Software Version: 1.2(147)
Parameter List :
Instrument                        Cary Eclipse
Instrument Serial Number          MY15120005
Data mode                         Fluorescence
Scan mode                         Emission
X Mode                            Wavelength (nm)
Start (nm)                        500.00
Stop (nm)                         600.00
Ex. Wavelength (nm)               495.00
Ex. Slit (nm)                     5
Em. Slit (nm)                     5
Scan rate (nm/min)                600.00
Data interval (nm)                1.0000
Averaging Time (s)                0.1000
Excitation filter                 Auto
Emission filter                   Open
PMT voltage (V)                   Medium
Corrected spectra                 OFF
Method Log     :
Method Name    : Default
Date/Time stamp: 8/21/2023 12:30:33 PM
Method Modifications:
User Delta Stop Changed: 8/21/2023 12:31:55 PM, Old: 450.00, New: 495.00
User Delta Increment Changed: 8/21/2023 12:31:55 PM, Old:  10.00, New:   0.15
Excitation Wavelength Changed: 8/21/2023 12:31:55 PM, Old: 350.00, New: 495.00
Emission Wavelength Changed: 8/21/2023 12:31:55 PM, Old: 400.00, New: 500.00
Zero Mode Changed: 8/21/2023 12:32:38 PM, Old:OFF, New:Reading
Zero Mode Changed: 8/21/2023 12:32:39 PM, Old:Reading, New:ON
End Method Modifications

pH 6 1,
pH 6 1
Collection Time: 8/21/2023 12:40:02 PM
Operator Name  :
Scan Software Version: 1.2(147)
Parameter List :
Instrument                        Cary Eclipse
Instrument Serial Number          MY15120005
Data mode                         Fluorescence
Scan mode                         Emission
X Mode                            Wavelength (nm)
Start (nm)                        500.00
Stop (nm)                         600.00
Ex. Wavelength (nm)               495.00
Ex. Slit (nm)                     5
Em. Slit (nm)                     5
Scan rate (nm/min)                600.00
Data interval (nm)                1.0000
Averaging Time (s)                0.1000
Excitation filter                 Auto
Emission filter                   Open
PMT voltage (V)                   Medium
Corrected spectra                 OFF
Method Log     :
Method Name    : Default
Date/Time stamp: 8/21/2023 12:30:33 PM
Method Modifications:
User Delta Stop Changed: 8/21/2023 12:31:55 PM, Old: 450.00, New: 495.00
User Delta Increment Changed: 8/21/2023 12:31:55 PM, Old:  10.00, New:   0.15
Excitation Wavelength Changed: 8/21/2023 12:31:55 PM, Old: 350.00, New: 495.00
Emission Wavelength Changed: 8/21/2023 12:31:55 PM, Old: 400.00, New: 500.00
Zero Mode Changed: 8/21/2023 12:32:38 PM, Old:OFF, New:Reading
Zero Mode Changed: 8/21/2023 12:32:39 PM, Old:Reading, New:ON
End Method Modifications

pH 6 2,
pH 6 2
Collection Time: 8/21/2023 12:41:05 PM
Operator Name  :
Scan Software Version: 1.2(147)
Parameter List :
Instrument                        Cary Eclipse
Instrument Serial Number          MY15120005
Data mode                         Fluorescence
Scan mode                         Emission
X Mode                            Wavelength (nm)
Start (nm)                        500.00
Stop (nm)                         600.00
Ex. Wavelength (nm)               495.00
Ex. Slit (nm)                     5
Em. Slit (nm)                     5
Scan rate (nm/min)                600.00
Data interval (nm)                1.0000
Averaging Time (s)                0.1000
Excitation filter                 Auto
Emission filter                   Open
PMT voltage (V)                   Medium
Corrected spectra                 OFF
Method Log     :
Method Name    : Default
Date/Time stamp: 8/21/2023 12:30:33 PM
Method Modifications:
User Delta Stop Changed: 8/21/2023 12:31:55 PM, Old: 450.00, New: 495.00
User Delta Increment Changed: 8/21/2023 12:31:55 PM, Old:  10.00, New:   0.15
Excitation Wavelength Changed: 8/21/2023 12:31:55 PM, Old: 350.00, New: 495.00
Emission Wavelength Changed: 8/21/2023 12:31:55 PM, Old: 400.00, New: 500.00
Zero Mode Changed: 8/21/2023 12:32:38 PM, Old:OFF, New:Reading
Zero Mode Changed: 8/21/2023 12:32:39 PM, Old:Reading, New:ON
End Method Modifications

pH 6 3,
pH 6 3
Collection Time: 8/21/2023 12:42:08 PM
Operator Name  :
Scan Software Version: 1.2(147)
Parameter List :
Instrument                        Cary Eclipse
Instrument Serial Number          MY15120005
Data mode                         Fluorescence
Scan mode                         Emission
X Mode                            Wavelength (nm)
Start (nm)                        500.00
Stop (nm)                         600.00
Ex. Wavelength (nm)               495.00
Ex. Slit (nm)                     5
Em. Slit (nm)                     5
Scan rate (nm/min)                600.00
Data interval (nm)                1.0000
Averaging Time (s)                0.1000
Excitation filter                 Auto
Emission filter                   Open
PMT voltage (V)                   Medium
Corrected spectra                 OFF
Method Log     :
Method Name    : Default
Date/Time stamp: 8/21/2023 12:30:33 PM
Method Modifications:
User Delta Stop Changed: 8/21/2023 12:31:55 PM, Old: 450.00, New: 495.00
User Delta Increment Changed: 8/21/2023 12:31:55 PM, Old:  10.00, New:   0.15
Excitation Wavelength Changed: 8/21/2023 12:31:55 PM, Old: 350.00, New: 495.00
Emission Wavelength Changed: 8/21/2023 12:31:55 PM, Old: 400.00, New: 500.00
Zero Mode Changed: 8/21/2023 12:32:38 PM, Old:OFF, New:Reading
Zero Mode Changed: 8/21/2023 12:32:39 PM, Old:Reading, New:ON
End Method Modifications

pH 7 1,
pH 7 1
Collection Time: 8/21/2023 12:43:45 PM
Operator Name  :
Scan Software Version: 1.2(147)
Parameter List :
Instrument                        Cary Eclipse
Instrument Serial Number          MY15120005
Data mode                         Fluorescence
Scan mode                         Emission
X Mode                            Wavelength (nm)
Start (nm)                        500.00
Stop (nm)                         600.00
Ex. Wavelength (nm)               495.00
Ex. Slit (nm)                     5
Em. Slit (nm)                     5
Scan rate (nm/min)                600.00
Data interval (nm)                1.0000
Averaging Time (s)                0.1000
Excitation filter                 Auto
Emission filter                   Open
PMT voltage (V)                   Medium
Corrected spectra                 OFF
Method Log     :
Method Name    : Default
Date/Time stamp: 8/21/2023 12:30:33 PM
Method Modifications:
User Delta Stop Changed: 8/21/2023 12:31:55 PM, Old: 450.00, New: 495.00
User Delta Increment Changed: 8/21/2023 12:31:55 PM, Old:  10.00, New:   0.15
Excitation Wavelength Changed: 8/21/2023 12:31:55 PM, Old: 350.00, New: 495.00
Emission Wavelength Changed: 8/21/2023 12:31:55 PM, Old: 400.00, New: 500.00
Zero Mode Changed: 8/21/2023 12:32:38 PM, Old:OFF, New:Reading
Zero Mode Changed: 8/21/2023 12:32:39 PM, Old:Reading, New:ON
End Method Modifications

pH 7 2,
pH 7 2
Collection Time: 8/21/2023 12:44:42 PM
Operator Name  :
Scan Software Version: 1.2(147)
Parameter List :
Instrument                        Cary Eclipse
Instrument Serial Number          MY15120005
Data mode                         Fluorescence
Scan mode                         Emission
X Mode                            Wavelength (nm)
Start (nm)                        500.00
Stop (nm)                         600.00
Ex. Wavelength (nm)               495.00
Ex. Slit (nm)                     5
Em. Slit (nm)                     5
Scan rate (nm/min)                600.00
Data interval (nm)                1.0000
Averaging Time (s)                0.1000
Excitation filter                 Auto
Emission filter                   Open
PMT voltage (V)                   Medium
Corrected spectra                 OFF
Method Log     :
Method Name    : Default
Date/Time stamp: 8/21/2023 12:30:33 PM
Method Modifications:
User Delta Stop Changed: 8/21/2023 12:31:55 PM, Old: 450.00, New: 495.00
User Delta Increment Changed: 8/21/2023 12:31:55 PM, Old:  10.00, New:   0.15
Excitation Wavelength Changed: 8/21/2023 12:31:55 PM, Old: 350.00, New: 495.00
Emission Wavelength Changed: 8/21/2023 12:31:55 PM, Old: 400.00, New: 500.00
Zero Mode Changed: 8/21/2023 12:32:38 PM, Old:OFF, New:Reading
Zero Mode Changed: 8/21/2023 12:32:39 PM, Old:Reading, New:ON
End Method Modifications

pH 7 3,
pH 7 3
Collection Time: 8/21/2023 12:45:36 PM
Operator Name  :
Scan Software Version: 1.2(147)
Parameter List :
Instrument                        Cary Eclipse
Instrument Serial Number          MY15120005
Data mode                         Fluorescence
Scan mode                         Emission
X Mode                            Wavelength (nm)
Start (nm)                        500.00
Stop (nm)                         600.00
Ex. Wavelength (nm)               495.00
Ex. Slit (nm)                     5
Em. Slit (nm)                     5
Scan rate (nm/min)                600.00
Data interval (nm)                1.0000
Averaging Time (s)                0.1000
Excitation filter                 Auto
Emission filter                   Open
PMT voltage (V)                   Medium
Corrected spectra                 OFF
Method Log     :
Method Name    : Default
Date/Time stamp: 8/21/2023 12:30:33 PM
Method Modifications:
User Delta Stop Changed: 8/21/2023 12:31:55 PM, Old: 450.00, New: 495.00
User Delta Increment Changed: 8/21/2023 12:31:55 PM, Old:  10.00, New:   0.15
Excitation Wavelength Changed: 8/21/2023 12:31:55 PM, Old: 350.00, New: 495.00
Emission Wavelength Changed: 8/21/2023 12:31:55 PM, Old: 400.00, New: 500.00
Zero Mode Changed: 8/21/2023 12:32:38 PM, Old:OFF, New:Reading
Zero Mode Changed: 8/21/2023 12:32:39 PM, Old:Reading, New:ON
End Method Modifications

pH 8 1,
pH 8 1
Collection Time: 8/21/2023 12:47:13 PM
Operator Name  :
Scan Software Version: 1.2(147)
Parameter List :
Instrument                        Cary Eclipse
Instrument Serial Number          MY15120005
Data mode                         Fluorescence
Scan mode                         Emission
X Mode                            Wavelength (nm)
Start (nm)                        500.00
Stop (nm)                         600.00
Ex. Wavelength (nm)               495.00
Ex. Slit (nm)                     5
Em. Slit (nm)                     5
Scan rate (nm/min)                600.00
Data interval (nm)                1.0000
Averaging Time (s)                0.1000
Excitation filter                 Auto
Emission filter                   Open
PMT voltage (V)                   Medium
Corrected spectra                 OFF
Method Log     :
Method Name    : Default
Date/Time stamp: 8/21/2023 12:30:33 PM
Method Modifications:
User Delta Stop Changed: 8/21/2023 12:31:55 PM, Old: 450.00, New: 495.00
User Delta Increment Changed: 8/21/2023 12:31:55 PM, Old:  10.00, New:   0.15
Excitation Wavelength Changed: 8/21/2023 12:31:55 PM, Old: 350.00, New: 495.00
Emission Wavelength Changed: 8/21/2023 12:31:55 PM, Old: 400.00, New: 500.00
Zero Mode Changed: 8/21/2023 12:32:38 PM, Old:OFF, New:Reading
Zero Mode Changed: 8/21/2023 12:32:39 PM, Old:Reading, New:ON
End Method Modifications

pH 8 2,
pH 8 2
Collection Time: 8/21/2023 12:48:11 PM
Operator Name  :
Scan Software Version: 1.2(147)
Parameter List :
Instrument                        Cary Eclipse
Instrument Serial Number          MY15120005
Data mode                         Fluorescence
Scan mode                         Emission
X Mode                            Wavelength (nm)
Start (nm)                        500.00
Stop (nm)                         600.00
Ex. Wavelength (nm)               495.00
Ex. Slit (nm)                     5
Em. Slit (nm)                     5
Scan rate (nm/min)                600.00
Data interval (nm)                1.0000
Averaging Time (s)                0.1000
Excitation filter                 Auto
Emission filter                   Open
PMT voltage (V)                   Medium
Corrected spectra                 OFF
Method Log     :
Method Name    : Default
Date/Time stamp: 8/21/2023 12:30:33 PM
Method Modifications:
User Delta Stop Changed: 8/21/2023 12:31:55 PM, Old: 450.00, New: 495.00
User Delta Increment Changed: 8/21/2023 12:31:55 PM, Old:  10.00, New:   0.15
Excitation Wavelength Changed: 8/21/2023 12:31:55 PM, Old: 350.00, New: 495.00
Emission Wavelength Changed: 8/21/2023 12:31:55 PM, Old: 400.00, New: 500.00
Zero Mode Changed: 8/21/2023 12:32:38 PM, Old:OFF, New:Reading
Zero Mode Changed: 8/21/2023 12:32:39 PM, Old:Reading, New:ON
End Method Modifications

pH 8 3,
pH 8 3
Collection Time: 8/21/2023 12:49:11 PM
Operator Name  :
Scan Software Version: 1.2(147)
Parameter List :
Instrument                        Cary Eclipse
Instrument Serial Number          MY15120005
Data mode                         Fluorescence
Scan mode                         Emission
X Mode                            Wavelength (nm)
Start (nm)                        500.00
Stop (nm)                         600.00
Ex. Wavelength (nm)               495.00
Ex. Slit (nm)                     5
Em. Slit (nm)                     5
Scan rate (nm/min)                600.00
Data interval (nm)                1.0000
Averaging Time (s)                0.1000
Excitation filter                 Auto
Emission filter                   Open
PMT voltage (V)                   Medium
Corrected spectra                 OFF
Method Log     :
Method Name    : Default
Date/Time stamp: 8/21/2023 12:30:33 PM
Method Modifications:
User Delta Stop Changed: 8/21/2023 12:31:55 PM, Old: 450.00, New: 495.00
User Delta Increment Changed: 8/21/2023 12:31:55 PM, Old:  10.00, New:   0.15
Excitation Wavelength Changed: 8/21/2023 12:31:55 PM, Old: 350.00, New: 495.00
Emission Wavelength Changed: 8/21/2023 12:31:55 PM, Old: 400.00, New: 500.00
Zero Mode Changed: 8/21/2023 12:32:38 PM, Old:OFF, New:Reading
Zero Mode Changed: 8/21/2023 12:32:39 PM, Old:Reading, New:ON
End Method Modifications

pH 9 1,
pH 9 1
Collection Time: 8/21/2023 12:50:42 PM
Operator Name  :
Scan Software Version: 1.2(147)
Parameter List :
Instrument                        Cary Eclipse
Instrument Serial Number          MY15120005
Data mode                         Fluorescence
Scan mode                         Emission
X Mode                            Wavelength (nm)
Start (nm)                        500.00
Stop (nm)                         600.00
Ex. Wavelength (nm)               495.00
Ex. Slit (nm)                     5
Em. Slit (nm)                     5
Scan rate (nm/min)                600.00
Data interval (nm)                1.0000
Averaging Time (s)                0.1000
Excitation filter                 Auto
Emission filter                   Open
PMT voltage (V)                   Medium
Corrected spectra                 OFF
Method Log     :
Method Name    : Default
Date/Time stamp: 8/21/2023 12:30:33 PM
Method Modifications:
User Delta Stop Changed: 8/21/2023 12:31:55 PM, Old: 450.00, New: 495.00
User Delta Increment Changed: 8/21/2023 12:31:55 PM, Old:  10.00, New:   0.15
Excitation Wavelength Changed: 8/21/2023 12:31:55 PM, Old: 350.00, New: 495.00
Emission Wavelength Changed: 8/21/2023 12:31:55 PM, Old: 400.00, New: 500.00
Zero Mode Changed: 8/21/2023 12:32:38 PM, Old:OFF, New:Reading
Zero Mode Changed: 8/21/2023 12:32:39 PM, Old:Reading, New:ON
End Method Modifications

pH 9 2,
pH 9 2
Collection Time: 8/21/2023 12:51:41 PM
Operator Name  :
Scan Software Version: 1.2(147)
Parameter List :
Instrument                        Cary Eclipse
Instrument Serial Number          MY15120005
Data mode                         Fluorescence
Scan mode                         Emission
X Mode                            Wavelength (nm)
Start (nm)                        500.00
Stop (nm)                         600.00
Ex. Wavelength (nm)               495.00
Ex. Slit (nm)                     5
Em. Slit (nm)                     5
Scan rate (nm/min)                600.00
Data interval (nm)                1.0000
Averaging Time (s)                0.1000
Excitation filter                 Auto
Emission filter                   Open
PMT voltage (V)                   Medium
Corrected spectra                 OFF
Method Log     :
Method Name    : Default
Date/Time stamp: 8/21/2023 12:30:33 PM
Method Modifications:
User Delta Stop Changed: 8/21/2023 12:31:55 PM, Old: 450.00, New: 495.00
User Delta Increment Changed: 8/21/2023 12:31:55 PM, Old:  10.00, New:   0.15
Excitation Wavelength Changed: 8/21/2023 12:31:55 PM, Old: 350.00, New: 495.00
Emission Wavelength Changed: 8/21/2023 12:31:55 PM, Old: 400.00, New: 500.00
Zero Mode Changed: 8/21/2023 12:32:38 PM, Old:OFF, New:Reading
Zero Mode Changed: 8/21/2023 12:32:39 PM, Old:Reading, New:ON
End Method Modifications

pH 9 3,
pH 9 3
Collection Time: 8/21/2023 12:52:53 PM
Operator Name  :
Scan Software Version: 1.2(147)
Parameter List :
Instrument                        Cary Eclipse
Instrument Serial Number          MY15120005
Data mode                         Fluorescence
Scan mode                         Emission
X Mode                            Wavelength (nm)
Start (nm)                        500.00
Stop (nm)                         600.00
Ex. Wavelength (nm)               495.00
Ex. Slit (nm)                     5
Em. Slit (nm)                     5
Scan rate (nm/min)                600.00
Data interval (nm)                1.0000
Averaging Time (s)                0.1000
Excitation filter                 Auto
Emission filter                   Open
PMT voltage (V)                   Medium
Corrected spectra                 OFF
Method Log     :
Method Name    : Default
Date/Time stamp: 8/21/2023 12:30:33 PM
Method Modifications:
User Delta Stop Changed: 8/21/2023 12:31:55 PM, Old: 450.00, New: 495.00
User Delta Increment Changed: 8/21/2023 12:31:55 PM, Old:  10.00, New:   0.15
Excitation Wavelength Changed: 8/21/2023 12:31:55 PM, Old: 350.00, New: 495.00
Emission Wavelength Changed: 8/21/2023 12:31:55 PM, Old: 400.00, New: 500.00
Zero Mode Changed: 8/21/2023 12:32:38 PM, Old:OFF, New:Reading
Zero Mode Changed: 8/21/2023 12:32:39 PM, Old:Reading, New:ON
End Method Modifications

pH 10 1,
pH 10 1
Collection Time: 8/21/2023 12:54:34 PM
Operator Name  :
Scan Software Version: 1.2(147)
Parameter List :
Instrument                        Cary Eclipse
Instrument Serial Number          MY15120005
Data mode                         Fluorescence
Scan mode                         Emission
X Mode                            Wavelength (nm)
Start (nm)                        500.00
Stop (nm)                         600.00
Ex. Wavelength (nm)               495.00
Ex. Slit (nm)                     5
Em. Slit (nm)                     5
Scan rate (nm/min)                600.00
Data interval (nm)                1.0000
Averaging Time (s)                0.1000
Excitation filter                 Auto
Emission filter                   Open
PMT voltage (V)                   Medium
Corrected spectra                 OFF
Method Log     :
Method Name    : Default
Date/Time stamp: 8/21/2023 12:30:33 PM
Method Modifications:
User Delta Stop Changed: 8/21/2023 12:31:55 PM, Old: 450.00, New: 495.00
User Delta Increment Changed: 8/21/2023 12:31:55 PM, Old:  10.00, New:   0.15
Excitation Wavelength Changed: 8/21/2023 12:31:55 PM, Old: 350.00, New: 495.00
Emission Wavelength Changed: 8/21/2023 12:31:55 PM, Old: 400.00, New: 500.00
Zero Mode Changed: 8/21/2023 12:32:38 PM, Old:OFF, New:Reading
Zero Mode Changed: 8/21/2023 12:32:39 PM, Old:Reading, New:ON
End Method Modifications

pH 10 2,
pH 10 2
Collection Time: 8/21/2023 12:55:37 PM
Operator Name  :
Scan Software Version: 1.2(147)
Parameter List :
Instrument                        Cary Eclipse
Instrument Serial Number          MY15120005
Data mode                         Fluorescence
Scan mode                         Emission
X Mode                            Wavelength (nm)
Start (nm)                        500.00
Stop (nm)                         600.00
Ex. Wavelength (nm)               495.00
Ex. Slit (nm)                     5
Em. Slit (nm)                     5
Scan rate (nm/min)                600.00
Data interval (nm)                1.0000
Averaging Time (s)                0.1000
Excitation filter                 Auto
Emission filter                   Open
PMT voltage (V)                   Medium
Corrected spectra                 OFF
Method Log     :
Method Name    : Default
Date/Time stamp: 8/21/2023 12:30:33 PM
Method Modifications:
User Delta Stop Changed: 8/21/2023 12:31:55 PM, Old: 450.00, New: 495.00
User Delta Increment Changed: 8/21/2023 12:31:55 PM, Old:  10.00, New:   0.15
Excitation Wavelength Changed: 8/21/2023 12:31:55 PM, Old: 350.00, New: 495.00
Emission Wavelength Changed: 8/21/2023 12:31:55 PM, Old: 400.00, New: 500.00
Zero Mode Changed: 8/21/2023 12:32:38 PM, Old:OFF, New:Reading
Zero Mode Changed: 8/21/2023 12:32:39 PM, Old:Reading, New:ON
End Method Modifications

pH 10 3,
pH 10 3
Collection Time: 8/21/2023 12:56:39 PM
Operator Name  :
Scan Software Version: 1.2(147)
Parameter List :
Instrument                        Cary Eclipse
Instrument Serial Number          MY15120005
Data mode                         Fluorescence
Scan mode                         Emission
X Mode                            Wavelength (nm)
Start (nm)                        500.00
Stop (nm)                         600.00
Ex. Wavelength (nm)               495.00
Ex. Slit (nm)                     5
Em. Slit (nm)                     5
Scan rate (nm/min)                600.00
Data interval (nm)                1.0000
Averaging Time (s)                0.1000
Excitation filter                 Auto
Emission filter                   Open
PMT voltage (V)                   Medium
Corrected spectra                 OFF
Method Log     :
Method Name    : Default
Date/Time stamp: 8/21/2023 12:30:33 PM
Method Modifications:
User Delta Stop Changed: 8/21/2023 12:31:55 PM, Old: 450.00, New: 495.00
User Delta Increment Changed: 8/21/2023 12:31:55 PM, Old:  10.00, New:   0.15
Excitation Wavelength Changed: 8/21/2023 12:31:55 PM, Old: 350.00, New: 495.00
Emission Wavelength Changed: 8/21/2023 12:31:55 PM, Old: 400.00, New: 500.00
Zero Mode Changed: 8/21/2023 12:32:38 PM, Old:OFF, New:Reading
Zero Mode Changed: 8/21/2023 12:32:39 PM, Old:Reading, New:ON
End Method Modifications

pH 11 1,
pH 11 1
Collection Time: 8/21/2023 12:58:04 PM
Operator Name  :
Scan Software Version: 1.2(147)
Parameter List :
Instrument                        Cary Eclipse
Instrument Serial Number          MY15120005
Data mode                         Fluorescence
Scan mode                         Emission
X Mode                            Wavelength (nm)
Start (nm)                        500.00
Stop (nm)                         600.00
Ex. Wavelength (nm)               495.00
Ex. Slit (nm)                     5
Em. Slit (nm)                     5
Scan rate (nm/min)                600.00
Data interval (nm)                1.0000
Averaging Time (s)                0.1000
Excitation filter                 Auto
Emission filter                   Open
PMT voltage (V)                   Medium
Corrected spectra                 OFF
Method Log     :
Method Name    : Default
Date/Time stamp: 8/21/2023 12:30:33 PM
Method Modifications:
User Delta Stop Changed: 8/21/2023 12:31:55 PM, Old: 450.00, New: 495.00
User Delta Increment Changed: 8/21/2023 12:31:55 PM, Old:  10.00, New:   0.15
Excitation Wavelength Changed: 8/21/2023 12:31:55 PM, Old: 350.00, New: 495.00
Emission Wavelength Changed: 8/21/2023 12:31:55 PM, Old: 400.00, New: 500.00
Zero Mode Changed: 8/21/2023 12:32:38 PM, Old:OFF, New:Reading
Zero Mode Changed: 8/21/2023 12:32:39 PM, Old:Reading, New:ON
End Method Modifications

pH 11 2,
pH 11 2
Collection Time: 8/21/2023 12:59:06 PM
Operator Name  :
Scan Software Version: 1.2(147)
Parameter List :
Instrument                        Cary Eclipse
Instrument Serial Number          MY15120005
Data mode                         Fluorescence
Scan mode                         Emission
X Mode                            Wavelength (nm)
Start (nm)                        500.00
Stop (nm)                         600.00
Ex. Wavelength (nm)               495.00
Ex. Slit (nm)                     5
Em. Slit (nm)                     5
Scan rate (nm/min)                600.00
Data interval (nm)                1.0000
Averaging Time (s)                0.1000
Excitation filter                 Auto
Emission filter                   Open
PMT voltage (V)                   Medium
Corrected spectra                 OFF
Method Log     :
Method Name    : Default
Date/Time stamp: 8/21/2023 12:30:33 PM
Method Modifications:
User Delta Stop Changed: 8/21/2023 12:31:55 PM, Old: 450.00, New: 495.00
User Delta Increment Changed: 8/21/2023 12:31:55 PM, Old:  10.00, New:   0.15
Excitation Wavelength Changed: 8/21/2023 12:31:55 PM, Old: 350.00, New: 495.00
Emission Wavelength Changed: 8/21/2023 12:31:55 PM, Old: 400.00, New: 500.00
Zero Mode Changed: 8/21/2023 12:32:38 PM, Old:OFF, New:Reading
Zero Mode Changed: 8/21/2023 12:32:39 PM, Old:Reading, New:ON
End Method Modifications

pH 11 3,
pH 11 3
Collection Time: 8/21/2023 12:59:55 PM
Operator Name  :
Scan Software Version: 1.2(147)
Parameter List :
Instrument                        Cary Eclipse
Instrument Serial Number          MY15120005
Data mode                         Fluorescence
Scan mode                         Emission
X Mode                            Wavelength (nm)
Start (nm)                        500.00
Stop (nm)                         600.00
Ex. Wavelength (nm)               495.00
Ex. Slit (nm)                     5
Em. Slit (nm)                     5
Scan rate (nm/min)                600.00
Data interval (nm)                1.0000
Averaging Time (s)                0.1000
Excitation filter                 Auto
Emission filter                   Open
PMT voltage (V)                   Medium
Corrected spectra                 OFF
Method Log     :
Method Name    : Default
Date/Time stamp: 8/21/2023 12:30:33 PM
Method Modifications:
User Delta Stop Changed: 8/21/2023 12:31:55 PM, Old: 450.00, New: 495.00
User Delta Increment Changed: 8/21/2023 12:31:55 PM, Old:  10.00, New:   0.15
Excitation Wavelength Changed: 8/21/2023 12:31:55 PM, Old: 350.00, New: 495.00
Emission Wavelength Changed: 8/21/2023 12:31:55 PM, Old: 400.00, New: 500.00
Zero Mode Changed: 8/21/2023 12:32:38 PM, Old:OFF, New:Reading
Zero Mode Changed: 8/21/2023 12:32:39 PM, Old:Reading, New:ON
End Method Modifications

